Fp1 Fp2 F7 F3 Fz F4 F8 FC5 FC1 FC2 FC6 T7 C3 Cz C4 T8 CP5 CP1 CP2 CP6 P7 P3 Pz P4 P8 PO9 O1 Oz O2 PO10
1.9274 0.5596 2.1626 0.3791 -0.4219 2.4920 1.6817 1.3370 0.0097 1.1762 0.6662 3.0152 0.3400 1.6503 1.8870 3.7368 1.5585 1.4949 1.4932 1.5944 -0.4225 2.0628 2.5650 1.8162 3.3559 2.3478 1.8993 2.2197 4.2652 -0.9501
-0.0221 2.6859 -0.6185 -0.1645 -0.7258 -0.5365 1.3043 1.7295 0.2512 0.3926 -1.5161 2.9132 1.3231 2.1839 1.3546 4.4313 2.5777 2.5316 1.4888 0.6122 -0.3077 3.2399 3.4225 1.2709 2.0940 4.3195 3.2682 2.0952 1.9373 -2.0974
-2.7070 2.1582 -1.4996 -1.3846 -0.7592 -0.6475 -0.3656 1.1686 -0.0733 0.2547 -1.7434 0.2676 1.3607 2.4442 1.3606 0.5285 2.4832 2.9058 1.3188 -0.2333 -0.2704 3.6257 3.6271 1.3043 0.5197 3.9683 2.4799 1.9306 2.1119 -2.1116
-0.5785 -0.8296 2.0226 -2.0112 -0.4223 1.9036 -1.2210 -0.5113 -0.7452 0.6521 -0.5919 -2.3417 0.1107 2.0462 1.3658 -2.0179 1.4295 2.5334 1.2735 -0.1112 -0.5086 2.9682 4.1198 2.4802 0.6499 2.3295 1.4994 4.5582 8.0845 1.1077
3.6300 -2.5367 4.3159 -2.4198 -0.2512 2.8383 -1.1699 -1.8216 -1.0969 0.8038 -0.7004 -2.3468 -0.8923 1.4535 0.7937 -1.0699 0.5933 1.9768 1.3106 0.4914 -0.7213 2.2204 4.5534 3.1219 1.0821 1.8885 1.4709 7.0156 11.8567 3.5825
5.2115 -1.1364 3.0725 -2.6432 -0.3591 1.3851 -0.9461 -1.3259 -0.9552 0.8112 -1.3671 -0.0633 -0.6377 1.2323 0.1509 -0.4472 0.9201 1.5592 1.1102 -0.0497 -0.5853 1.9978 3.7819 1.3274 -0.1226 3.6151 2.1070 5.6724 7.3011 2.1050
4.3562 0.3184 2.0580 -2.3582 -0.5604 0.2892 -0.6145 -0.0518 -1.0451 0.8370 -0.5713 1.6345 -0.2334 1.1914 0.0325 -1.7602 1.3637 1.1206 0.7400 -1.5760 -0.3534 1.6961 2.4618 -1.2532 -1.6370 5.2122 2.6520 2.9164 1.9246 -0.3076
2.0385 0.3580 1.7633 -2.1645 -0.7054 0.7621 -0.1132 0.6206 -1.5022 0.5637 0.3967 1.2547 -0.5853 0.8833 -0.1913 -2.2936 0.5871 0.3943 0.1007 -2.7790 -0.3957 0.4182 1.2756 -2.5144 -1.8950 4.2386 1.3222 0.1316 0.4531 -1.1983
-0.5777 1.2269 -0.0893 -2.1591 -0.5341 1.3682 0.3217 1.0821 -1.5261 0.2358 -0.1168 0.6646 -0.9447 0.4933 -1.0171 -1.1138 -0.3526 -0.5077 -0.8696 -3.6507 -0.5997 -1.1895 -0.3729 -3.3453 -1.8618 1.8078 -1.8477 -3.8870 -2.1793 -2.7535
-0.4908 2.5587 -2.2719 -1.2377 -0.1020 0.6149 0.4028 1.5787 -1.1434 0.3036 -0.6323 1.3309 -0.9591 0.3609 -1.4874 -0.4620 -0.1948 -1.1617 -1.5302 -4.3919 -0.6342 -1.6967 -1.7689 -4.3059 -2.1863 0.2427 -3.4372 -5.6703 -4.7739 -5.1689
2.0137 1.6955 -2.1115 0.7290 0.0220 -0.4736 -0.0847 1.1428 -1.0896 0.5180 -0.2400 1.6834 -1.2541 0.2697 -1.0472 -1.1531 0.1690 -1.2769 -1.5324 -4.2320 -0.4345 -1.0243 -1.3029 -3.8937 -1.9190 -0.1114 -1.7776 -2.1332 -1.4795 -4.8841
2.9395 -0.5661 0.3334 1.7802 -0.5386 -0.1365 -0.9139 -0.4904 -1.3412 0.5620 -0.5984 0.5367 -1.7434 0.1193 -0.6063 -1.3491 -0.0242 -0.8802 -1.3400 -2.8078 -0.1912 0.0712 0.3214 -1.8311 -0.8183 0.6893 0.8553 1.8193 3.5149 -2.1961
0.9863 -1.1169 2.9002 0.5125 -1.4178 0.6573 -1.0977 -1.7671 -1.5054 0.4752 -1.8831 -0.5428 -1.8514 0.2640 -0.6148 0.1317 -0.1719 -0.2532 -1.3352 -1.1954 -0.0584 1.1492 1.1698 0.1034 0.3966 2.5034 2.4416 1.8627 3.9074 -1.0373
-1.9514 0.8204 3.9544 -1.0695 -1.7395 0.3355 -0.2155 -1.3914 -1.5174 0.2721 -2.3691 -0.5392 -1.7792 0.4563 -0.6925 1.8681 -0.0519 0.1562 -1.7584 -1.0443 -0.0342 1.6146 0.9174 0.5788 1.2961 3.0538 2.5845 0.7080 2.9770 -1.1506
-3.3412 2.6568 3.4892 -0.5101 -1.2937 -0.5243 0.2989 -0.6243 -1.4587 0.0237 -2.1061 -0.6677 -1.9332 0.0380 -0.8979 1.8309 0.1138 0.0386 -2.6266 -2.2525 -0.0814 1.1365 0.1573 -0.1445 1.5341 0.7534 0.8789 -0.3108 3.3996 -0.5413
-1.5498 1.4772 1.3614 0.6428 -1.0540 -1.0106 -0.6390 -0.7974 -1.5242 -0.0231 -1.9440 -0.9084 -1.9479 -0.5105 -0.9768 0.3133 0.5424 -0.2419 -2.9516 -2.5676 -0.1792 0.6076 -0.5662 -0.6528 1.3104 -1.5807 -1.6655 -2.7286 1.7935 -0.8809
0.7820 -1.2787 -2.5977 -0.0169 -1.4310 -0.6459 -1.3782 -0.3528 -1.7430 0.2595 -1.0184 0.4676 -1.2632 -0.2406 -0.0146 -0.3447 1.1865 0.0919 -1.7453 -0.7987 -0.2504 0.9338 -0.0559 0.9130 2.4761 -1.0441 -1.9982 -2.8499 0.9795 -1.3856
-0.0882 -1.4229 -5.1108 -0.9816 -1.4219 0.7502 -0.1168 1.4243 -1.8564 0.7277 1.0251 2.7356 -0.4328 0.3239 1.6543 1.1773 1.2702 0.7448 0.0311 1.7151 -0.2300 1.2944 1.8730 4.3959 5.7945 0.0538 -0.0881 1.8648 6.9466 1.3816
-1.8920 0.8387 -2.3819 -0.3008 -0.6867 1.7929 1.8791 1.9057 -1.8832 1.0803 2.4952 3.2135 -0.7805 0.1133 2.4637 3.3409 0.3598 0.4195 0.3826 3.2319 -0.1638 0.3593 2.7495 6.0860 7.9157 -1.1108 0.0395 3.9436 12.3829 3.5646
-1.1713 1.6244 2.4277 0.0688 -0.4491 1.1576 2.2115 0.3067 -1.9795 1.1025 2.1862 1.7706 -1.9861 -0.4055 2.0668 3.6385 -0.4972 -0.4914 -0.6597 3.0750 -0.1132 -0.7664 1.4758 3.9964 6.3753 -1.7006 -1.1809 -0.0785 7.6187 0.8364
0.1118 -0.0180 2.8022 -1.6086 -1.3769 -0.0246 0.6344 -0.8178 -1.9489 0.8794 0.6397 0.2381 -2.0825 -0.1989 1.6708 2.0916 0.0281 -0.0754 -0.9419 2.0007 -0.0665 0.1897 0.9095 2.1135 4.5200 1.0023 1.1210 -1.2999 1.0395 -0.7725
0.2941 -2.0787 -0.6265 -2.8920 -2.3650 -0.1034 -1.0051 -0.7548 -1.7233 0.6984 -0.8436 -0.5619 -1.0085 0.3672 1.9200 1.2514 1.0776 1.2404 0.1586 1.6444 -0.0235 1.9301 2.3215 3.3191 5.1785 2.7112 4.4623 2.6720 3.2646 1.8195
1.1225 -2.8700 -1.8460 -1.9181 -2.2755 0.9019 -0.8203 -0.7106 -1.6247 0.7389 -0.9570 -0.0482 -0.7000 0.3185 2.1195 2.4698 0.7478 1.2152 0.6140 2.0389 -0.0685 0.9668 2.7060 4.0233 5.5227 -0.6181 1.8107 2.3180 6.4809 1.5250
2.2916 -1.9988 -0.4953 -0.7185 -1.4295 2.0608 0.9116 -0.2899 -1.7493 0.9292 0.3984 1.7336 -1.4116 -0.3443 1.6487 3.9370 -0.8325 -0.0830 -0.6699 1.4219 -0.2192 -2.2245 0.6031 1.4845 3.3097 -5.4275 -4.5627 -4.0215 1.2413 -2.6374
1.7315 -0.8536 -1.3815 -0.5335 -0.5449 2.3579 1.6524 0.7505 -1.7659 1.1058 1.7283 2.0348 -2.0265 -0.9546 0.8968 2.8557 -2.3825 -1.0479 -2.1469 -0.3875 -0.2637 -4.1175 -1.5474 -1.5317 0.5991 -7.2765 -7.2701 -7.8214 -6.0373 -4.2818
-0.1718 -0.8048 -3.4595 -0.0682 0.1220 1.4697 0.1721 0.5595 -1.4860 1.1607 1.7227 -0.9515 -2.5804 -1.0700 0.4068 -0.6582 -3.5323 -1.4314 -2.3784 -1.6903 -0.0486 -3.8218 -1.7454 -2.2416 -0.5585 -6.7615 -5.7557 -5.9602 -6.1398 -3.3287
-1.5515 -0.9990 -1.2114 0.3122 0.1514 0.6047 -1.3760 -1.5543 -1.2482 0.9326 0.2120 -4.2061 -3.2763 -0.7962 -0.0652 -2.4036 -4.1654 -1.6063 -1.9322 -2.0282 0.1819 -3.0864 -0.5694 -1.1401 0.0121 -5.5026 -3.4324 -2.0023 -0.5114 -2.5505
-1.3336 -0.1488 3.4874 -1.0109 -0.3998 0.7030 -0.8438 -3.2213 -1.3034 0.3749 -2.0620 -4.7130 -3.5089 -0.7269 -1.0276 0.5427 -4.1640 -1.7117 -2.0889 -2.4785 0.1751 -3.0347 0.1188 -0.4840 1.0993 -3.8990 -2.1421 0.4452 3.1072 -1.4366
0.0351 1.4856 3.7024 -2.6533 -0.4268 0.4657 0.4690 -2.5588 -1.2127 -0.0610 -3.4237 -3.9839 -3.2393 -1.1514 -2.2329 3.7539 -3.9953 -2.0612 -3.1065 -3.6950 0.1172 -3.5855 -0.8887 -2.3145 0.1282 -2.8048 -2.8737 -0.7880 0.2208 -1.4044
1.0529 1.8964 -1.2052 -2.1047 0.1418 -1.1444 -0.3203 -1.0223 -0.7596 0.0379 -2.8583 -4.2890 -3.0551 -1.4782 -2.8294 0.7796 -3.9793 -2.3440 -4.1023 -5.1685 0.1886 -4.0348 -2.4184 -5.4028 -3.2007 -2.5916 -4.2902 -3.7280 -4.9655 -3.3613
0.9222 -0.7937 -6.4821 -0.4632 -0.0910 -2.0186 -3.0672 -0.5263 -0.5657 0.3094 -1.6854 -5.0500 -3.0575 -1.2310 -2.5377 -5.7625 -3.9487 -1.8393 -4.3656 -5.7783 0.1607 -3.7173 -2.5920 -6.2864 -5.3730 -2.3463 -3.6756 -4.2084 -6.0533 -3.6653
-0.8175 -3.6824 -8.3978 -0.2693 -1.1481 -0.2576 -4.3122 -0.3143 -0.8287 0.2929 -1.5124 -4.7175 -2.9038 -0.8300 -2.0751 -7.7517 -3.6725 -0.9960 -4.1015 -5.3401 -0.0970 -2.7938 -1.8716 -5.1262 -4.9140 -1.4950 -1.8016 -2.8565 -4.7676 -2.0767
-3.9010 -1.7210 -5.3334 -1.0870 -1.6275 1.5395 -2.6119 0.4599 -0.9772 0.2032 -1.8898 -3.2988 -2.2879 -0.5675 -1.9847 -4.7099 -2.8118 -0.6303 -3.5608 -4.7832 -0.3127 -1.7143 -1.4194 -4.7815 -4.2891 -0.4865 -0.8386 -2.0956 -4.7592 -2.5900
-4.2876 2.4553 1.0686 -1.4237 -1.4001 0.6645 -0.5798 0.3685 -1.0640 0.3745 -1.7254 -2.1826 -1.3741 -0.2193 -1.8367 -2.2436 -1.6156 -0.5281 -2.7994 -4.3569 -0.3264 -0.8090 -0.9529 -5.2593 -4.5584 -0.2448 -0.6460 -1.4374 -3.7078 -4.3566
1.0739 1.7330 5.8419 -1.6012 -1.2545 -0.2191 -0.3911 -1.1255 -1.5991 0.7581 -1.1237 -1.9439 -0.8957 -0.0761 -1.3471 -2.0519 -1.1123 -0.5100 -2.4087 -4.1017 -0.2851 -0.7054 -0.7797 -5.5834 -4.8959 -1.1842 -1.2484 -1.8580 -2.3901 -4.7063
6.3333 -2.2533 5.7930 -2.0023 -1.1655 1.2454 -1.3249 -1.9585 -2.1170 1.0971 -0.8004 -1.2959 -0.9997 -0.4617 -1.0476 -2.9660 -1.1800 -0.8108 -2.5991 -4.7394 -0.2065 -1.3495 -1.7188 -6.6021 -5.7849 -2.3516 -2.8115 -4.6425 -5.7187 -5.9410
4.5841 -2.1149 2.9725 -1.9916 -0.8681 1.9757 -1.8602 -1.0209 -1.8789 1.0923 -0.8030 0.6818 -0.9295 -0.8111 -1.1591 -4.6020 -0.7518 -1.1312 -2.5020 -5.6707 0.0467 -1.8316 -2.7222 -7.8676 -7.4031 -3.1784 -3.9321 -6.6250 -10.2007 -9.0108
0.1857 0.9417 1.4899 -1.3662 -0.4243 0.7435 -1.5246 0.0796 -1.4393 0.8334 -0.1878 2.5794 -0.8006 -0.9786 -1.3456 -6.0187 -0.5434 -1.4528 -2.1179 -5.6301 0.3425 -2.4472 -3.0947 -8.1854 -8.7083 -5.1593 -4.9338 -6.6800 -9.9548 -10.7511
0.5723 -0.2153 2.0791 -0.6087 -0.0098 1.1872 -1.3576 -0.0571 -1.6412 0.9055 1.4559 2.3571 -1.3930 -1.4499 -1.4669 -7.1294 -1.6364 -2.1398 -2.4053 -5.3423 0.3669 -3.7453 -4.0002 -8.6387 -9.5770 -8.4417 -7.0522 -8.2809 -9.3593 -11.4398
2.6709 -4.2669 1.8040 -0.3184 -0.1348 3.2087 -2.3408 -0.7099 -2.0369 1.3674 2.4350 -0.0539 -1.9260 -1.5275 -1.2609 -8.5618 -2.4568 -2.2635 -2.6190 -5.2069 0.1500 -4.0591 -4.6573 -8.9961 -9.4925 -9.6590 -7.8287 -9.9896 -11.4725 -12.5649
0.7739 -4.2788 -0.4639 -0.6680 -0.7396 2.9455 -3.2311 -0.9589 -2.0156 1.5580 1.3019 -2.8439 -1.4345 -0.4957 -0.4733 -8.2004 -1.8805 -1.1497 -1.4643 -3.7458 0.0449 -2.6128 -3.1211 -6.5818 -7.0515 -7.6480 -5.8775 -7.4786 -9.6394 -11.0833
-2.0035 -0.8912 -2.0117 -0.8325 -0.6226 1.0919 -2.4874 -1.2136 -2.0209 1.3747 -0.2315 -4.2868 -1.1232 0.3038 0.3197 -4.8558 -1.8744 -0.4885 -0.1040 -1.3439 0.1637 -2.0625 -1.1394 -2.4199 -3.6343 -6.0826 -5.0202 -3.8934 -2.9434 -6.9583
-1.6593 1.1491 -1.0306 -0.1578 0.4793 0.3219 -0.8143 -1.5518 -2.2688 1.2876 0.0653 -3.8395 -1.7944 -0.1816 0.6117 -1.7175 -2.9017 -1.2052 0.0687 -0.1741 0.2742 -3.3785 -1.1810 -0.5156 -2.0922 -6.4017 -6.3264 -3.8962 0.3960 -5.5617
-0.1174 1.9795 0.7588 0.5114 1.2543 -0.0862 0.7683 -0.9370 -2.1466 1.2697 1.5616 -1.9887 -2.0072 -0.8259 0.7397 -0.1261 -2.4158 -1.5547 0.0066 -0.3115 0.2591 -3.7007 -1.7498 -0.8028 -1.8922 -5.8776 -6.1048 -4.9391 -1.0219 -7.0056
1.6398 1.8614 0.8004 0.2108 1.0965 -0.1790 1.9603 0.5132 -1.6953 1.0751 2.5131 0.1086 -1.1979 -0.8639 0.8079 1.8314 -0.2317 -0.7799 0.4845 -0.5760 0.2216 -2.1088 -1.0747 -0.3424 -0.9057 -4.4889 -4.3242 -3.9066 -1.0193 -6.4520
3.5000 -0.5978 -1.3328 -0.4738 0.6425 1.3547 1.8825 1.2887 -1.6306 0.8373 2.4171 1.4317 -0.5119 -0.9028 0.5598 2.9852 0.9588 -0.2146 0.5543 -0.7703 0.1681 -1.0046 -0.2917 0.8220 0.3833 -4.6907 -3.8072 -2.4324 1.0883 -4.1913
2.0278 -1.9356 -3.1673 -0.7071 0.5320 2.9136 0.7900 1.1480 -1.8506 0.7242 1.6778 1.7592 -0.4015 -1.0653 0.0842 1.4098 0.2589 -0.4941 -0.4465 -0.9528 0.0514 -1.5057 -0.6222 0.5104 0.1213 -5.6957 -4.3085 -2.6148 0.2241 -4.0254
-1.8855 0.5987 -2.5903 -1.1331 1.0079 2.7879 0.5727 0.9449 -1.8559 0.7924 1.1498 1.0795 -0.8989 -1.1210 -0.4856 -0.2865 -1.2453 -1.3117 -1.9209 -1.0622 0.0041 -2.6812 -1.6528 -1.1030 -1.4284 -5.8813 -4.8553 -3.9960 -3.5283 -5.4313
-1.5768 1.3936 -1.5322 -1.9303 1.4823 2.3122 0.9767 0.4969 -1.8551 1.0590 1.6419 -0.4021 -2.0991 -1.2712 -0.7722 -0.1440 -2.8202 -2.2645 -2.7304 -0.9152 0.0983 -3.5970 -2.1740 -1.4829 -1.8014 -6.5461 -5.4987 -4.2760 -3.7004 -5.1629
2.7614 -3.0609 -1.7898 -1.5192 0.8478 2.4427 0.1687 -0.6523 -2.0397 1.2491 2.4942 -1.5063 -2.9202 -1.3109 -0.1979 -0.1261 -3.7158 -2.4683 -2.2838 -0.1744 0.1398 -3.5982 -1.3765 -0.0025 -0.1039 -7.7204 -5.1943 -2.6090 0.5530 -3.5734
3.9474 -6.0370 -0.7286 -0.0562 -0.4822 2.3767 -0.8580 -1.8248 -2.1245 0.9859 1.8569 -1.5360 -2.5161 -0.9466 0.5075 -0.1466 -3.1649 -1.6674 -1.3536 0.4842 0.0489 -2.7400 -0.0986 0.8846 1.2699 -6.6246 -3.5345 -1.4998 1.6636 -3.3857
0.2335 -2.4221 2.3881 0.4418 -0.6682 1.9132 -0.2057 -2.1186 -2.0985 0.4119 -0.4499 -1.6138 -1.9608 -0.7501 -0.0342 1.5684 -1.9219 -1.0334 -1.0936 0.0663 0.0217 -1.9952 0.2512 -0.1617 0.4862 -3.4557 -2.0191 -2.2807 -2.5728 -4.2194
-3.7619 2.5913 2.9412 0.6249 0.5510 1.5048 0.6678 -1.5194 -2.0563 0.1273 -2.1663 -2.4767 -2.1204 -1.0646 -1.3178 2.5325 -1.5456 -1.1295 -1.4536 -0.5822 0.1093 -1.7831 -0.0974 -1.5622 -1.2448 -1.4832 -1.1104 -2.7674 -5.6277 -3.9169
-3.8403 2.9782 -0.3781 1.8735 1.5077 0.9399 0.0366 -0.7627 -1.8104 0.3623 -1.8070 -3.1133 -2.3212 -1.2329 -1.6897 0.6574 -2.0760 -1.0862 -1.5465 -0.0487 0.1536 -1.7214 -0.1891 -1.9773 -2.2088 -1.2491 -0.1781 -2.1428 -4.9529 -2.5274
0.4099 0.3557 -2.6123 2.0846 1.3354 0.1138 -0.3678 -0.3805 -1.5033 0.6188 -0.3886 -2.7000 -2.0693 -0.9490 -0.9655 -0.2363 -2.3274 -0.6390 -1.1472 1.0203 0.1794 -1.9206 -0.2367 -1.8610 -2.2306 -1.5567 -0.3917 -2.2607 -4.1452 -1.0303
3.9939 -1.0826 -1.4874 0.0766 0.6563 0.0587 0.6949 -0.1256 -1.4345 0.4771 0.6388 -1.7208 -1.6641 -0.7881 -0.3202 1.4847 -2.1035 -0.6315 -0.8667 0.8068 0.3241 -2.5260 -0.7168 -1.9264 -2.2582 -2.6931 -2.4381 -2.8976 -3.9182 0.0014
2.4216 -1.1970 -0.0814 -1.0969 0.2482 1.4308 1.1010 0.0888 -1.3155 0.2964 0.8860 -1.4315 -1.3686 -0.9227 -0.4133 1.4417 -2.1539 -1.1346 -0.8019 -0.8649 0.4767 -2.6990 -1.1220 -2.1210 -2.8778 -3.8061 -2.9698 -1.6148 -2.1168 -0.0965
-0.2983 -1.9962 -0.1778 -0.0730 0.3492 2.9385 -0.0806 -0.1706 -0.9833 0.4879 0.5397 -2.6467 -1.2912 -0.8282 -0.7222 -0.7919 -2.4646 -1.2257 -0.3791 -2.1362 0.4387 -2.0256 -1.0410 -2.1123 -3.2295 -3.2415 -0.1080 0.7411 0.2217 -0.8360
0.4399 -3.0014 -0.8769 0.4462 0.4630 2.9884 -0.7646 -0.4809 -0.9183 0.6850 -0.0302 -4.0200 -1.3358 -0.4448 -0.5787 -0.9454 -2.4641 -0.7632 0.0912 -1.9592 0.2749 -1.4977 -1.0187 -2.2625 -3.0009 -2.2530 1.6770 0.4884 0.0020 -1.4798
0.6862 -2.3906 -2.2872 -0.6472 -0.0380 1.7739 -0.3966 0.1864 -1.0839 0.4127 -0.4732 -3.1875 -1.0602 -0.1939 -0.1949 0.0265 -2.0377 -0.3272 -0.0842 -1.5390 0.1811 -1.4684 -1.2685 -3.1394 -3.8070 -2.0893 -0.4228 -2.1027 -2.9343 -3.1575
-1.7337 -0.8859 -4.2702 -1.5451 -0.8137 0.4071 -0.3855 1.4128 -0.8591 -0.0307 -0.6001 -0.4220 -0.3578 0.0194 -0.0047 -1.0337 -1.2711 0.2051 -0.1763 -1.5991 0.1954 -1.0337 -1.0896 -3.9098 -5.6288 -1.3539 -2.4611 -3.3148 -5.5962 -5.2787
-0.9674 -0.4008 -4.0772 -1.4648 -0.9672 -0.4986 -0.3608 1.6321 -0.4799 -0.0644 -0.2196 1.2866 0.0649 0.4060 0.1103 -1.5779 -0.5186 0.8521 0.3946 -1.3582 0.2170 -0.4138 -0.3901 -3.3152 -5.7980 -0.2572 -2.1072 -2.5047 -5.1681 -4.0948
3.3523 -0.6497 -0.9168 -1.0118 -0.4369 -0.6834 0.3869 0.6202 -0.6362 0.2740 0.4796 0.2284 -0.2329 0.5806 0.1508 0.0820 -0.3183 0.7928 0.4860 -1.2159 0.1475 -0.4547 0.0928 -1.9674 -3.9637 -0.5580 -1.4105 -1.3283 -1.8039 -0.4236
3.2832 -0.6037 0.9287 -0.5866 -0.1809 -0.4152 0.3352 -0.1780 -1.0005 0.4748 0.6976 -1.7316 -0.5107 0.4493 -0.0116 0.0997 -0.2537 0.3418 -0.0674 -2.0089 -0.0100 -0.0996 0.5323 -0.9205 -2.4424 -0.9674 0.1266 0.6206 1.6834 0.3520
-1.8966 -0.3458 -0.7188 -0.4244 -0.8323 -0.5900 -0.9755 0.0145 -0.9503 0.3333 0.1951 -1.6097 -0.1606 0.5392 0.0723 -2.2329 0.2965 0.7522 0.1768 -2.4828 -0.1134 1.3529 1.5093 0.1706 -1.5944 -0.0632 3.4649 3.6182 3.8577 -1.0409
-4.7779 0.3711 -1.7180 -0.1327 -1.6213 -1.2502 -1.4066 0.4973 -0.7011 0.1110 -0.0942 0.8066 0.2111 0.7457 0.4529 -3.2646 0.5997 1.2828 0.6537 -2.1202 -0.0464 1.6970 1.8117 0.5068 -1.3449 -0.2257 4.1274 4.5056 4.7050 -1.0366
-4.0886 1.6498 0.3663 0.7934 -1.5382 -1.3176 -0.5252 0.6857 -0.5249 0.0076 0.3528 2.9183 0.1723 0.4632 0.2083 -3.2713 -0.0058 0.4927 -0.4159 -2.8032 0.0830 -0.1056 0.1384 -1.7386 -3.3771 -2.3138 -0.2407 1.0179 2.2790 -2.6929
-3.6959 1.8397 2.4320 1.1727 -1.0299 -0.6284 -0.2290 0.5164 -0.3401 -0.0772 0.6487 2.7109 0.1187 0.0374 -0.7123 -4.0405 -0.7003 -0.4659 -1.7979 -4.2165 0.0793 -1.3171 -1.5730 -4.3661 -5.8066 -3.0642 -3.3820 -2.7843 -2.1742 -6.2314
-1.8070 -0.2182 2.6312 -0.3676 -0.9247 -0.2481 -0.5954 -0.2272 -0.3843 -0.1804 0.2169 0.6095 -0.0785 0.1426 -1.1055 -2.9823 -0.8674 -0.1198 -1.4055 -3.7547 -0.0704 -0.5496 -0.9625 -3.4435 -4.1197 -1.9102 -1.5388 -2.4516 -2.3792 -4.4674
3.6105 -2.9871 2.0317 -2.8476 -0.8648 -0.6037 -0.4718 -1.2849 -0.8238 -0.1545 -0.0688 -1.6510 -0.8358 0.3052 -0.7187 0.1937 -1.1496 0.3425 -0.5289 -2.1384 -0.2451 -0.1791 0.3576 -0.8480 -0.6166 -1.9330 -0.0804 -1.1365 0.8872 0.8003
6.1430 -4.3084 0.5385 -4.0880 -0.5585 -1.1305 -0.7869 -1.8011 -1.1267 -0.0211 0.3045 -2.6232 -1.4704 0.0463 -0.3916 -0.0045 -1.7196 -0.1007 -0.6796 -2.0010 -0.3801 -1.0761 0.3531 -0.5710 -0.8924 -3.2897 -1.4030 -2.0076 0.9705 -0.0226
2.0990 -4.1678 -2.1723 -2.9334 -0.5353 -1.0352 -2.3034 -1.5131 -0.8605 0.0917 0.6287 -2.2057 -1.3171 0.1108 -0.1518 -4.1760 -1.7390 -0.3691 -0.4639 -2.6243 -0.4462 -1.2626 0.4983 -1.0889 -2.7245 -4.2890 -1.3670 -1.3202 0.2589 -4.3486
-1.0721 -4.1247 -5.0310 -0.3716 -0.6689 0.2232 -3.0626 -0.7839 -0.4763 0.2785 0.7252 -2.1054 -1.2135 0.7096 0.3486 -5.7409 -1.6094 -0.4042 0.3491 -2.3097 -0.4283 -1.2007 1.1231 -0.4666 -1.8470 -5.9162 -1.3233 0.4611 2.5502 -3.6912
0.3657 -4.1033 -6.6507 0.7077 -0.4917 1.5181 -1.9839 -0.1236 -0.5857 0.4935 0.9745 -3.6048 -1.8082 0.7244 0.5103 -3.3720 -2.7195 -1.5098 -0.3952 -1.9701 -0.3751 -3.2251 -0.4744 -1.5765 -1.5225 -8.2822 -5.7739 -3.7023 0.0565 -2.1057
-0.2951 -2.1095 -5.4044 -0.9178 -0.5755 0.6812 -0.8456 -0.1557 -0.8808 0.3399 0.8624 -4.6990 -2.1086 -0.0201 -0.0224 -2.2868 -4.1286 -2.8820 -2.3051 -2.3697 -0.3006 -5.7798 -3.5098 -4.9297 -4.5324 -8.6489 -10.2751 -11.1898 -10.0939 -5.5592
-4.3506 1.3101 -1.7694 -2.4732 -1.2771 -1.5457 -0.5007 -0.6761 -0.6450 -0.1369 0.0290 -3.1068 -1.4739 -0.3749 -0.5524 -2.7662 -3.8386 -2.6629 -2.7890 -2.6263 -0.1814 -5.6989 -3.8422 -6.1921 -6.5688 -7.1797 -9.0221 -11.6271 -15.4230 -8.4251
-4.7684 2.6536 0.1484 -1.8211 -1.7688 -2.2324 0.1063 -0.6671 -0.0787 -0.3417 -0.7343 -0.8973 -0.8144 -0.0197 -0.7225 -0.7622 -2.7449 -1.4311 -1.8158 -2.5404 -0.0855 -4.0764 -1.6337 -4.4569 -5.0831 -6.9346 -5.9619 -6.0938 -10.2484 -6.4021
-1.1495 1.2242 -1.1909 -1.0136 -1.7537 -1.6586 0.7227 -0.3427 0.0809 -0.2155 -1.0937 -1.0915 -0.6856 0.4701 -0.7349 2.5015 -2.4696 -0.6165 -0.7917 -2.3082 -0.0488 -3.2389 -0.1362 -2.7857 -2.9866 -7.3101 -5.1967 -3.3318 -4.2519 -3.8545
0.5034 -0.1410 -1.9641 -1.6421 -1.8340 -2.2139 0.0994 -0.9352 -0.1767 -0.2231 -1.5292 -2.4780 -0.6402 0.8239 -0.5064 2.7519 -2.1712 -0.0534 0.3932 -1.4416 -0.0098 -2.3194 0.7262 -1.4626 -1.5795 -5.6407 -3.4808 -2.7978 -1.9265 -2.2474
-0.4602 -0.1009 -0.6414 -1.9252 -1.9248 -3.3412 -1.1309 -1.9906 -0.3247 -0.3661 -2.0124 -2.2409 -0.4788 0.9647 -0.1332 0.8037 -1.0872 0.5693 1.6782 -0.1870 0.0073 -0.5469 2.2075 0.5111 0.0467 -3.0976 0.4624 0.1384 1.3489 0.3940
-0.8775 0.4584 -0.4322 -0.9539 -1.6057 -3.3766 -1.3392 -1.8020 -0.0989 -0.4433 -2.2487 -0.3692 -0.1401 0.9358 -0.1321 0.3351 -0.1367 0.8325 1.9517 0.5080 -0.0074 0.3859 2.7649 1.1199 0.4338 -2.3026 2.4211 2.2473 3.5560 1.2092
-0.8482 0.7580 -1.9669 -0.0917 -1.3210 -2.9962 -0.7448 -0.5654 0.2969 -0.6309 -2.1309 1.0964 0.4291 0.8895 -0.6428 0.8000 0.0021 0.6109 1.0850 0.4535 0.0969 -0.4964 1.2410 -1.1084 -1.8720 -3.2385 0.5581 -0.2950 -0.0890 -1.9801
-1.5119 0.1293 -2.5047 0.2197 -1.4626 -2.8794 -0.8735 -0.0216 0.4351 -0.9318 -1.4994 1.1233 0.6050 0.7498 -1.2735 -0.8310 -0.4629 0.2900 0.1305 -0.1062 0.3237 -1.7980 -0.3370 -3.4627 -4.3385 -4.5116 -2.0992 -3.1855 -3.8215 -4.4785
-1.1071 -1.5732 -2.2159 0.3598 -1.4106 -2.2244 -1.7561 -0.2803 0.3294 -0.9801 -0.7770 0.6467 0.0702 0.6237 -1.6361 -3.3160 -0.8253 0.4113 -0.1776 -1.0813 0.4046 -1.8696 -0.1042 -3.2790 -4.1507 -4.8037 -2.7396 -2.3449 -1.4689 -2.7813
1.6040 -2.9871 -3.0161 -0.0223 -0.6881 -1.1002 -1.9688 -0.1151 0.3611 -0.7199 -0.5790 0.4694 -0.3996 0.6869 -1.6340 -3.2288 -0.6262 0.8935 0.0072 -2.1333 0.2136 -1.0311 0.6796 -2.1977 -2.8544 -3.9843 -2.1815 -1.1845 1.3888 -0.2774
2.9268 -2.6351 -3.6435 -0.6431 -0.0378 -0.8794 -1.3115 0.4241 0.4332 -0.5885 -0.5501 0.2494 -0.2893 0.5696 -1.4028 -1.8539 -0.3341 0.9566 0.0991 -2.6541 -0.0554 -0.6658 0.4046 -2.5445 -3.0852 -3.4193 -2.0940 -2.3173 -0.4764 -0.8744
-0.5450 -0.5591 -2.3108 -0.4956 -0.2564 -2.0178 -0.8016 0.5735 0.3372 -0.9907 -0.6284 0.3663 0.1339 0.2289 -1.2664 -1.9216 -0.0410 0.7608 -0.0780 -2.5376 -0.2157 -0.5281 -0.0185 -3.3160 -4.1209 -2.9468 -1.5283 -2.4225 -2.9715 -3.1728
-4.5136 1.6885 -0.4142 -0.0805 -0.7154 -2.9775 -0.3926 0.5840 0.2998 -1.6789 -1.4826 0.9621 0.4626 0.1595 -1.6284 -1.6177 0.5862 0.9902 -0.3063 -2.4639 -0.2576 0.1324 0.0888 -3.4046 -4.4033 -1.4291 -0.1683 -0.9461 -3.3534 -3.1149
-3.3037 2.0381 0.4291 -0.6189 -0.4170 -2.3332 0.0510 0.5150 0.2951 -1.8309 -2.4164 -0.0843 0.1212 0.0552 -2.4488 -0.2090 0.5347 0.8576 -0.7802 -2.8741 -0.1878 0.1284 -0.6452 -4.1276 -4.7819 -0.4390 -0.2900 -1.8130 -3.9133 -0.7086
0.6771 -0.1887 0.9105 -1.5679 0.2159 -1.1834 -0.9360 -0.6136 0.0897 -1.1951 -2.3336 -3.2666 -0.9984 -0.5308 -3.1128 -1.8019 -0.8091 -0.2602 -1.5915 -3.4667 -0.0518 -0.9731 -2.0272 -5.6809 -6.1819 -1.1607 -1.2146 -3.8143 -4.3201 -0.7083
2.1329 -2.8543 1.0835 -1.7433 0.2360 -1.1669 -3.2394 -2.2727 -0.0895 -0.6101 -2.0754 -5.0532 -1.7105 -0.8151 -3.1934 -6.0532 -1.7385 -1.0358 -1.8632 -4.0435 -0.0347 -1.2451 -2.0537 -6.1993 -7.3087 -1.3873 0.0843 -2.7197 -3.1504 -4.0799
0.7163 -2.7886 -0.8061 -1.5558 -0.1433 -1.7577 -3.6471 -1.9917 -0.0326 -0.7398 -2.4173 -3.7292 -1.1703 -0.2412 -2.8118 -6.3317 -1.3901 -0.7706 -1.1155 -4.4734 -0.1772 -0.5692 -1.3460 -5.5119 -6.8904 -0.5332 1.5591 -1.1271 -2.7215 -5.3325
-1.0045 -0.3897 -3.7852 -2.1035 -0.3178 -1.9453 -1.4099 0.1049 0.0444 -1.1561 -2.3091 -1.9239 -0.5640 0.2149 -2.2271 -2.2005 -1.3577 -0.6895 -0.4976 -4.1767 -0.2141 -1.1272 -2.0525 -5.0661 -5.6786 -0.9568 -0.6449 -3.5340 -4.6934 -2.4397
-1.0681 0.2150 -3.6951 -2.9198 -0.3771 -1.8595 -0.0797 0.6851 0.0394 -1.2287 -1.1706 -0.9822 -1.0327 -0.2301 -1.6279 -0.6221 -2.0753 -1.2496 -0.9817 -2.9778 -0.0266 -2.6354 -3.3843 -4.6972 -4.7280 -2.5603 -3.9326 -7.1235 -6.5101 -0.0895
0.3759 -1.6558 -0.4879 -2.3193 -0.3905 -1.7990 -0.9217 -0.7038 0.1649 -0.9696 0.0373 0.3280 -1.4201 -0.7790 -1.0665 -2.8274 -1.9271 -1.3428 -1.6592 -1.5454 0.1268 -2.6845 -3.2177 -3.3483 -3.6648 -2.9814 -3.6483 -6.8209 -5.0867 -0.4284
0.5091 -1.7143 0.8869 -0.5436 -0.2148 -1.8853 -1.1003 -0.9179 0.4460 -0.6674 0.5414 1.4051 -0.6302 -0.5634 -0.4527 -3.1508 -0.8828 -0.6471 -1.3401 -0.4842 0.0538 -1.3466 -1.8675 -1.5358 -2.0106 -2.0555 -0.8762 -3.2219 -1.0356 -0.8953
-2.1975 0.7562 -1.0674 0.2050 -0.1863 -2.0983 0.1001 0.3910 0.5214 -0.5024 0.4457 0.7528 0.0190 -0.1715 -0.0256 -0.6878 -0.6857 -0.2932 -0.5050 0.0677 -0.1683 -0.7982 -1.0390 -0.4931 -0.7597 -1.3032 0.8893 -0.2637 1.3839 -0.9012
-4.5996 1.6650 -2.5231 -0.2780 -0.5554 -2.3668 0.0988 0.2781 0.2175 -0.5696 0.0585 -0.5488 -0.6297 -0.4464 -0.3242 -0.3879 -1.4993 -1.0037 -0.3060 0.2541 -0.4546 -1.6178 -1.3274 -0.4255 -0.9474 -1.5643 0.8988 0.1791 -0.0373 -1.2214
-3.2270 0.2396 -1.2569 -0.6047 -0.8421 -2.9589 -1.5441 -1.8577 -0.1418 -0.7616 -0.5048 -1.2859 -1.6767 -0.9692 -1.1953 -3.0855 -2.2933 -2.2427 -0.9251 0.3005 -0.7187 -2.8327 -2.2988 -1.0464 -1.9440 -3.0748 -0.6607 -1.2636 -2.1572 -0.5762
-0.0091 -1.1292 -0.0016 -1.2243 -0.6904 -3.3475 -2.6318 -3.6381 -0.4255 -0.8573 -1.2774 -2.6544 -2.6079 -1.1555 -1.9311 -4.5250 -3.4830 -3.4700 -2.1522 -0.0977 -0.7770 -4.2828 -3.5983 -2.5889 -3.2405 -5.6454 -3.8927 -3.9009 -3.3398 -0.1788
0.2587 -2.4213 -1.8847 -2.6831 -0.4788 -2.4276 -2.6815 -3.8098 -1.0060 -0.9156 -2.0221 -5.4912 -3.9666 -1.4351 -2.5522 -3.8119 -5.7208 -4.7836 -4.0094 -1.6063 -0.5661 -6.3834 -5.2445 -5.1784 -5.6896 -8.6865 -7.6011 -7.6932 -6.6109 -3.9376
-2.7861 -3.4932 -4.9297 -3.4019 -0.6541 -1.4087 -2.6328 -3.2028 -1.7776 -1.1130 -2.1866 -8.1084 -4.9934 -1.8432 -3.2676 -3.5469 -7.5221 -5.6338 -5.5119 -3.6015 -0.2774 -8.1772 -6.6947 -7.4693 -8.5226 -10.9650 -9.9170 -11.3512 -11.2393 -9.2126
-5.0860 -2.1349 -5.2952 -2.5611 -1.0943 -2.3164 -2.2181 -2.4036 -1.8245 -1.3039 -1.8181 -8.0317 -4.2692 -1.3912 -3.3180 -3.5907 -6.8686 -4.7292 -4.9198 -4.2298 -0.1525 -7.7232 -6.3798 -7.3479 -8.8619 -10.1265 -9.5151 -11.8784 -11.7044 -8.6474
-4.7671 0.3247 -4.0313 -1.6753 -1.3384 -3.6345 -1.5951 -1.4139 -0.9276 -1.2808 -1.6607 -5.0118 -2.3790 -0.1341 -2.3556 -3.0420 -4.1820 -2.4230 -2.5395 -3.1429 -0.2184 -4.8932 -3.8172 -4.7975 -6.3923 -5.6409 -5.9454 -7.8540 -7.0745 -3.2594
-3.1183 -0.4486 -3.9273 -1.7932 -1.2629 -2.9645 -2.0740 -0.9734 -0.1793 -1.1340 -1.8325 -1.8936 -1.0204 0.5936 -1.4637 -3.3544 -1.8160 -0.8194 -0.7652 -1.9121 -0.2609 -1.9673 -0.9404 -2.1310 -3.9658 -1.4778 -0.8703 -1.6497 -1.3925 -0.7888
-1.2677 -3.6855 -4.2126 -2.2943 -1.2627 -1.6638 -3.1386 -1.4463 -0.2383 -1.0799 -1.9390 -0.9576 -0.5274 0.5280 -1.4828 -4.0681 -1.0195 -0.5973 -0.6922 -1.5158 -0.1297 -0.5886 0.3385 -0.9335 -3.1252 -0.7810 2.4177 2.3858 2.0612 -2.3100
-0.8705 -4.4493 -3.9053 -2.5489 -1.4790 -1.5713 -3.1134 -1.6710 -0.5083 -1.3248 -2.4448 -1.2200 -0.3975 0.3790 -2.2522 -3.1586 -1.0829 -0.6771 -1.4517 -1.9856 0.0343 -0.3379 -0.0934 -1.3018 -3.4133 -1.1114 2.2563 1.4198 0.9751 -2.7178
-3.2476 -2.1996 -3.7822 -2.1377 -1.3207 -1.6388 -2.5765 -1.2205 -0.4354 -1.8385 -3.6321 -1.8159 -0.6890 0.0569 -3.3303 -2.3909 -1.3115 -0.7848 -2.3558 -3.1055 0.0421 -0.7041 -1.4469 -2.9154 -4.3440 -0.3531 0.0809 -2.4817 -3.6395 -1.0630
-5.1605 -0.7355 -3.5207 -0.7002 -0.4460 -1.4112 -2.8878 -1.1795 -0.0217 -2.0920 -4.0925 -3.1451 -1.1809 -0.5672 -3.9586 -4.0621 -1.6028 -1.2157 -3.1849 -3.7332 -0.0745 -1.5077 -2.6097 -4.6371 -5.2043 -0.4757 -1.5969 -4.3372 -6.4927 -0.9570
-3.0822 -0.9934 -2.3057 0.6118 0.4544 -1.9299 -3.1193 -1.4060 0.5931 -1.7819 -2.9013 -3.3732 -0.9718 -0.8241 -3.6775 -5.7273 -1.3864 -1.4616 -3.6728 -3.0886 -0.2031 -1.8756 -2.9548 -5.4388 -5.5399 -1.2799 -1.8955 -3.8850 -6.9997 -3.5465
-0.7359 -0.4319 -0.9723 0.1903 0.6472 -2.2082 -1.9120 -0.5984 0.9358 -1.4686 -1.5945 -0.9174 -0.1333 -0.6960 -3.1902 -4.5399 -0.5060 -1.2931 -3.9110 -2.3841 -0.2942 -1.4757 -3.0111 -5.6168 -5.7019 -0.1203 -1.7698 -4.3791 -8.7351 -5.4881
-2.3135 1.1940 -1.3155 -1.0120 0.3577 -1.0485 -0.2937 0.8605 0.6228 -1.5494 -1.5385 1.3257 0.2680 -0.9094 -3.1448 -1.9565 -0.0935 -1.2475 -3.9982 -2.7325 -0.2624 -1.2205 -2.9636 -5.1550 -5.3404 1.1405 -1.7402 -4.2885 -8.7243 -3.9574
-3.7686 1.1676 -3.4052 -0.9412 0.1223 -0.3958 -0.0999 1.3152 0.1375 -1.5701 -1.6890 0.8327 0.0577 -1.3094 -3.1602 -0.9644 -0.5980 -1.3884 -3.7739 -3.4362 -0.0511 -1.4671 -2.5145 -3.8100 -4.0694 -0.4814 -1.3378 -1.6368 -4.1763 -1.0248
-1.4444 -0.8855 -4.2747 -0.1894 -0.1412 -1.7335 -1.2248 0.2994 -0.0628 -1.3634 -1.1909 -0.4965 -0.2116 -1.2551 -2.8522 -2.1935 -0.9502 -1.3673 -3.3877 -3.3581 0.1935 -1.5527 -2.2469 -2.6446 -2.8359 -1.6863 -0.4138 -0.2944 -1.1696 0.4166
0.6189 -2.2248 -2.6528 -0.5939 -0.6301 -3.2195 -2.0894 -1.1063 -0.2353 -1.4075 -1.1626 -1.0843 -0.4911 -0.9877 -2.3864 -3.3324 -0.7991 -1.3431 -3.0702 -2.2648 0.2891 -1.2875 -2.3047 -2.0521 -1.9200 0.8637 0.9070 -1.3352 -2.0244 1.4186
-0.2497 -1.8598 -1.9334 -1.4529 -0.8231 -3.0711 -1.7679 -1.6230 -0.3539 -1.5527 -1.7323 -1.8327 -0.8185 -1.0175 -1.9141 -2.1071 -1.1360 -1.7478 -2.8240 -0.9465 0.2514 -1.4793 -2.1092 -1.1175 -0.7407 2.7050 1.4640 -1.1773 -1.6120 2.3018
-1.0174 -1.2662 -3.0505 -1.2340 -0.3268 -1.6822 -0.7570 -1.2135 -0.1902 -1.1567 -1.2988 -2.4492 -0.9658 -1.1221 -1.3995 0.0810 -2.0586 -2.4167 -2.5238 -0.0818 0.1666 -2.5398 -2.2605 -0.2801 -0.0161 -0.2300 -0.8530 -1.5682 -0.7153 1.0214
-0.5827 -0.7425 -2.3395 -0.9680 0.1843 -0.5856 -0.1301 -0.8746 -0.1186 -0.5926 -0.1737 -1.6477 -0.8131 -0.9265 -0.8261 0.3042 -2.2384 -2.3997 -1.6241 0.7586 0.0410 -3.1067 -2.7585 -0.3693 -0.1800 -2.9543 -4.1392 -4.5651 -2.5201 -0.2628
-0.9154 0.4676 -0.1112 -1.4832 0.2721 -1.2431 -0.1670 -0.7797 -0.2029 -0.6299 0.0347 -0.0979 -0.2300 -0.5441 -0.1410 -0.9950 -1.1856 -1.1951 0.0237 1.9183 -0.0936 -1.8425 -1.8198 -0.2968 0.0553 -0.4497 -2.9841 -4.5238 -3.0942 1.3878
-1.3307 1.6749 0.0243 -1.0899 0.6385 -2.8494 -0.0215 -0.3144 0.0591 -0.7797 0.0550 0.8487 0.6502 -0.2194 0.6383 -1.0739 0.0804 0.1478 1.2195 2.8705 -0.1516 -0.0436 0.1644 0.7314 0.8943 3.0776 1.8734 -0.0086 -1.1316 2.3573
0.3534 1.5227 -0.5920 0.2790 1.4172 -2.5984 0.7839 0.1350 0.4062 -0.3740 0.8608 1.0578 1.0626 -0.1375 1.0407 0.7705 0.8701 0.4199 1.1487 3.3114 -0.1366 0.3982 0.5389 1.6299 1.1279 2.6086 3.5653 1.2420 -1.6500 0.5624
2.5728 0.4471 0.8163 0.4478 1.6434 -0.4283 1.4552 -0.1609 0.2939 -0.0543 1.1967 0.4565 0.6935 -0.3912 0.7498 2.5901 1.2040 -0.0199 0.7439 3.4331 -0.1341 -0.1001 -0.6308 1.8786 1.1711 0.6482 0.4567 -2.4923 -3.6147 0.8549
1.9208 0.7302 1.7401 -0.2133 1.3053 0.3900 1.5312 -0.3789 0.1726 -0.2873 0.7530 -0.7756 0.4374 -0.5639 0.5010 2.7487 0.9656 -0.1843 0.9223 3.3711 -0.1738 -0.5248 -1.0870 2.2402 2.1456 0.4695 -2.6830 -4.3180 -1.8186 4.1186
-0.7294 2.9925 -0.3687 0.0780 1.2746 -1.0927 1.7352 0.6022 0.4934 -0.4294 0.8611 -0.8970 0.9240 -0.1866 0.8421 2.1934 0.4969 0.1384 1.3738 3.0182 -0.2293 -0.8376 -0.6434 2.5467 2.8570 0.5997 -3.2185 -2.2658 1.3707 4.8550
-1.5356 4.2863 -2.3760 0.4117 1.2551 -2.3534 2.2065 1.8417 0.7678 -0.3490 1.2861 1.0233 1.3641 0.3419 0.9488 2.3729 0.4945 0.5731 1.5052 2.1870 -0.2965 -0.7846 -0.4611 1.6847 1.4960 -0.0873 -2.2353 -0.7179 0.7434 2.1631
-0.1980 2.7008 -1.2437 -0.1590 0.6931 -2.0484 2.0595 1.7135 0.7026 -0.5055 1.1424 2.5693 1.0076 0.4468 0.3925 2.2679 0.4991 0.6059 1.0893 1.3150 -0.3750 -0.4192 -0.5825 -0.1042 -1.0596 -0.6071 -1.0448 -1.3062 -2.2150 0.5404
0.2920 0.3288 0.0304 0.1073 0.3818 -1.0118 0.9971 0.5364 0.7131 -0.5644 0.9671 1.1102 0.3445 0.2735 0.0214 0.5147 -0.5745 -0.0337 0.3533 1.0120 -0.4491 -0.9380 -0.7106 -1.0818 -2.5067 -2.0593 -0.6065 -1.4138 -2.4781 1.3397
-1.1436 -1.0131 -2.0659 1.7468 0.7193 -0.1306 -0.5449 -0.4673 0.8833 -0.2123 0.8611 -1.9211 -0.1443 0.0601 -0.0078 -1.8820 -2.4551 -0.8994 -0.0302 0.6634 -0.4930 -2.4361 -0.8736 -0.4080 -2.3076 -5.4879 -1.1202 0.5796 1.6397 1.8463
-2.8236 -1.6129 -4.9348 2.3589 0.7709 -0.3242 -1.9035 -1.0502 0.8567 -0.1079 0.0891 -3.0431 -0.5957 -0.1653 -0.4071 -3.2739 -3.4904 -1.2599 0.1889 -0.4381 -0.3983 -3.0628 -0.7695 0.5370 -1.9219 -7.1487 -1.1226 2.4022 5.7802 0.1812
-3.2207 -1.3626 -4.5146 1.2184 0.2607 -1.6067 -2.1514 -1.1777 0.7607 -0.5854 -0.9928 -1.8972 -0.7294 -0.2478 -1.2047 -3.1419 -2.6923 -1.0791 0.0511 -1.6768 -0.0658 -2.1325 -0.6187 -0.5140 -3.1009 -3.9815 0.0256 0.7790 2.6723 -3.3258
-2.8586 -0.3561 -1.9005 0.6462 -0.0704 -2.0047 -1.4323 -0.8153 0.9607 -1.0696 -1.8019 -1.0892 -0.3031 -0.2619 -2.2012 -2.2992 -1.2845 -1.0055 -1.3881 -2.7845 0.3146 -1.3773 -1.4605 -3.8954 -6.0818 -0.2473 0.1465 -3.6357 -7.5378 -7.0282
-2.8627 0.1569 -0.4108 1.3297 0.0461 -0.9719 -1.3439 -0.8624 1.1352 -1.1921 -2.5565 -1.8337 -0.0879 -0.4248 -3.3756 -2.4710 -1.1549 -1.3360 -3.0766 -4.2267 0.4287 -1.8870 -2.8332 -6.6140 -8.3902 -0.7321 -1.8526 -6.4342 -14.1120 -8.3612
-2.6391 -0.5238 -0.9637 1.1444 0.1826 -0.9121 -2.3979 -1.7759 0.8055 -1.1938 -2.9541 -3.0175 -0.5098 -0.4867 -3.9645 -3.8845 -1.9371 -1.5021 -3.0437 -5.1299 0.3054 -2.3903 -2.6810 -5.5888 -7.2517 -2.8091 -3.0745 -4.6444 -9.9072 -6.1675
-1.6984 -1.9018 -3.0744 -0.4308 -0.0937 -2.6370 -3.3679 -2.2989 0.4385 -1.3374 -2.5627 -3.4580 -0.6354 -0.2344 -3.2900 -4.7257 -1.7682 -0.8485 -1.5079 -4.1017 0.2083 -1.5012 -0.6092 -1.8271 -3.6931 -2.2478 -1.0855 0.2070 -0.7587 -2.3671
-0.9873 -2.9686 -5.3212 -1.4188 -0.5055 -3.7988 -3.4750 -1.7361 0.7024 -1.4817 -2.1057 -2.7678 0.1261 0.0386 -2.0183 -4.0154 -0.4717 0.3639 -0.2890 -1.8111 0.2040 0.3225 1.5989 1.3629 -1.0994 -0.2245 2.3593 4.1777 4.8473 0.7722
-0.0771 -3.1992 -5.2277 -1.2706 -0.2496 -2.9048 -2.9141 -1.2615 1.1001 -1.3173 -2.1287 -1.5075 0.9237 0.1519 -1.0606 -2.3781 0.5852 1.1532 0.2560 -0.0942 0.1960 1.5775 2.5056 2.4845 -0.5985 0.4515 4.0966 4.6391 4.9422 2.4436
1.1654 -2.9583 -2.8297 -1.2180 0.4511 -1.2364 -2.1633 -1.4899 0.8608 -0.9470 -1.9662 -1.1745 0.9191 0.1240 -0.4946 -1.2365 0.6629 1.0269 0.6825 0.7834 0.1488 1.3984 2.0314 1.8926 -0.9576 0.0089 3.1790 2.1832 1.4105 2.5105
-0.3039 -1.9808 -1.0104 -1.2057 0.5660 -0.6486 -1.7846 -1.5999 0.3544 -0.6912 -1.2731 -2.1497 0.3742 -0.1730 -0.1830 -1.9503 -0.2763 0.4166 0.5761 1.7854 0.0666 0.3017 1.0195 0.6671 -0.9496 -0.1343 1.4177 -0.1759 -2.2166 1.8848
-4.7165 0.4850 -0.6795 -0.4302 0.3518 -1.2057 -1.6321 -1.2906 0.2402 -0.5276 -0.9218 -2.5382 -0.0685 -0.5178 -0.1742 -3.0656 -1.5354 -0.0567 -0.0801 2.6794 -0.0247 -0.4287 0.6013 0.3703 -0.0461 0.1926 1.0696 -0.1760 -2.4070 1.5068
-6.7597 2.8519 -0.4975 0.6175 0.6889 -1.5286 -1.0605 -0.9562 0.5253 -0.4234 -1.3796 -1.1851 -0.0208 -0.3516 -0.2666 -1.7887 -1.3087 0.0164 -0.1478 2.6433 -0.0024 0.0347 1.1832 1.5768 1.3427 0.6616 1.9994 1.3473 0.4981 1.1551
-4.1093 2.2584 -0.3437 1.1702 1.1470 -1.0160 -0.4305 -0.5656 1.0484 -0.5194 -1.4519 0.0456 0.5293 0.1114 -0.0567 0.3526 0.5912 0.5769 0.3541 2.4830 0.2081 1.2048 1.9420 2.9200 2.0734 1.3138 2.6220 2.1389 3.1820 1.4604
-0.8099 -0.5082 -0.5584 1.0212 1.0972 -0.3393 -0.4442 -0.1663 1.4826 -0.5966 -0.2912 -0.6293 1.0265 0.0732 0.3495 -0.0133 1.4367 0.8145 0.1573 2.9713 0.3920 1.5916 1.7340 2.8407 1.6371 1.8442 2.7537 1.7396 3.6013 3.1035
-0.2354 -1.7011 -0.3731 0.1122 0.8375 -0.0870 -0.7756 -0.2620 1.4206 -0.4041 0.6357 -1.8125 0.9894 -0.3912 0.3624 -1.7077 0.2321 0.3500 -0.4562 2.9532 0.2942 0.6980 0.7639 1.8429 0.9435 1.6484 3.0830 1.6980 2.9031 4.3251
-0.9575 -0.8134 0.0308 -0.7777 0.5334 -0.3467 -1.0034 -0.7646 1.2216 -0.3071 -0.0069 -1.4374 0.7005 -0.6129 -0.2091 -1.9443 -0.5786 -0.0770 -0.2593 1.9538 0.1063 -0.1821 0.1671 1.2619 0.7900 0.8858 2.8294 1.8435 2.4907 3.4398
-0.5889 -0.2522 -0.5926 -0.6070 0.3415 -0.7763 -1.0457 -0.8257 1.4303 -0.5705 -1.0915 -0.2060 0.3918 -0.6774 -1.0485 -1.1290 -0.2414 -0.3377 -0.1013 1.1196 0.1963 -0.5641 -0.4795 0.0901 -0.1473 -0.0645 0.2629 -1.0070 -0.5193 0.5998
-0.0899 0.2554 -1.9947 0.2906 0.8474 -0.6592 -0.5716 -0.2139 1.6685 -0.7758 -1.4849 -0.0460 -0.1309 -0.9461 -1.9158 -0.4428 -0.7121 -1.1909 -1.4070 0.4517 0.4411 -1.7068 -2.2618 -2.8562 -3.0786 -1.7127 -4.1248 -6.5458 -7.3859 -3.3093
-1.2464 1.7763 -3.7191 1.0653 1.5127 -0.3373 0.0397 0.3397 1.5372 -0.7103 -1.6675 -0.8495 -0.5501 -1.1093 -2.5298 0.0382 -2.0619 -2.3165 -2.9450 -0.7094 0.4932 -3.5888 -3.9161 -4.9382 -5.6130 -4.3370 -7.2937 -8.8146 -10.8820 -5.8175
-2.7503 2.3069 -6.2876 1.2542 0.9679 -1.2174 -0.2322 0.5100 1.4521 -0.6991 -1.5826 -1.2484 -0.4562 -0.8890 -2.4178 -0.3811 -2.5982 -2.6871 -2.8689 -1.6114 0.4739 -4.4389 -3.8737 -4.0746 -5.4683 -6.6120 -7.8222 -6.3437 -7.5311 -5.2934
-3.0922 0.7419 -7.5871 0.4380 -0.3328 -2.5677 -1.1342 0.4912 1.5793 -0.7283 -0.7060 -1.4276 -0.4203 -0.5958 -1.6889 -2.2705 -2.4815 -2.4578 -1.9081 -1.7657 0.6429 -3.8862 -3.3429 -3.3841 -5.2087 -6.9437 -7.1127 -4.9872 -5.8492 -5.0189
-2.7984 -1.1575 -4.6606 -0.8391 -0.8106 -2.0154 -1.7400 -0.1682 1.3926 -0.5521 -0.1473 -2.3548 -0.8804 -0.4695 -1.1909 -4.2214 -2.7681 -2.3740 -1.5335 -1.8431 0.7698 -3.2286 -3.6443 -5.1106 -7.1504 -5.4363 -5.6890 -6.4697 -9.7601 -7.3857
-1.7880 -2.2448 -0.7014 -1.1496 -0.4334 -0.3471 -2.1241 -1.6040 0.7745 -0.3906 -0.9410 -3.3146 -1.2559 -0.4799 -1.2953 -4.6359 -3.1050 -2.5073 -1.4945 -1.7084 0.5628 -3.2563 -3.9804 -6.1798 -8.4433 -3.9293 -3.5731 -6.3755 -11.0689 -8.2455
-0.6197 -1.9031 -0.8179 0.0275 0.1672 -0.0857 -2.3507 -2.4866 0.2776 -0.3662 -1.7633 -3.2158 -1.4793 -0.7497 -1.5493 -4.1102 -3.2924 -2.8410 -1.2217 -1.0243 0.2261 -4.1399 -4.0010 -4.7500 -7.0720 -4.3333 -3.3275 -4.3750 -6.3563 -5.5784
-1.6249 -0.0105 -2.4705 1.7841 0.9273 -0.4898 -1.9444 -2.2470 0.1464 -0.2625 -1.5196 -2.9923 -2.1557 -1.2979 -1.7410 -3.7807 -3.9625 -3.3930 -1.0867 -0.8117 0.0693 -5.3200 -4.2388 -3.4874 -5.8615 -5.7941 -5.4148 -3.3802 -2.3425 -4.4870
-3.6226 0.8907 -0.4826 2.3709 1.1900 0.0183 -1.2176 -2.2034 0.1160 -0.2977 -1.2900 -3.9047 -2.7208 -1.6253 -1.9364 -3.0690 -4.3531 -3.4495 -1.1066 -1.4561 0.1115 -5.0017 -3.9100 -3.5365 -6.2509 -5.1295 -5.0901 -1.9657 -1.9249 -6.1634
-2.4072 -0.6434 2.8107 1.2960 0.6496 0.5081 -0.7305 -2.5164 0.2123 -0.6018 -1.4022 -4.8414 -2.0945 -1.3428 -1.7941 -1.4248 -3.1961 -2.5601 -0.7405 -1.6834 0.2853 -2.9012 -2.6993 -3.0762 -5.8874 -2.3457 -1.8397 0.2858 -2.0391 -5.2291
1.2107 -1.6507 2.0561 0.6001 0.5102 0.2534 -0.2166 -1.6383 0.7034 -0.5961 -0.7876 -3.8229 -0.7025 -0.8074 -1.2961 0.0296 -1.4700 -1.5095 -0.1898 -0.9953 0.5232 -1.4139 -2.2976 -2.0675 -4.2113 -0.8418 -1.6051 -0.7551 -2.6186 -1.8576
2.1214 -0.3044 -1.3727 1.0912 0.7525 -0.4689 0.2594 0.0346 1.2336 -0.2977 -0.0582 -1.1334 0.3391 -0.4083 -1.0755 0.4881 -0.6503 -0.8559 0.1807 -0.0208 0.6621 -1.2246 -2.5590 -1.4333 -2.7978 -0.9007 -3.8037 -3.0909 -3.4954 -0.9608
-0.6974 1.2644 -2.1365 0.8201 -0.0738 -1.8486 0.2087 0.3902 1.2325 -0.4724 -0.3831 1.1813 0.8749 0.1069 -0.9740 0.6734 -0.1704 -0.1513 1.0463 1.3143 0.6059 -0.2967 -1.0104 0.2585 -0.9357 -0.2115 -1.9522 0.0368 -0.3387 -0.6899
-3.2404 1.6183 0.1689 -0.2899 -1.1666 -2.9437 0.1233 -0.4653 0.9704 -0.8796 -0.6786 1.8541 1.2539 0.8974 -0.1675 1.3733 0.7379 0.8537 2.8874 3.0619 0.4664 1.6463 2.0501 3.7291 2.3054 0.8426 2.3612 5.6772 6.1534 2.7654
-2.6577 0.8619 1.5243 -0.6291 -0.8213 -2.2693 0.4636 -0.8092 0.9104 -0.7155 -0.0451 1.0012 1.5088 1.4884 0.9955 2.4676 1.4827 1.9073 4.6714 4.1904 0.3932 3.0821 3.9981 6.4305 4.5873 1.1753 3.6527 6.6921 9.0909 5.5954
-0.4836 -1.0139 0.7621 -0.9868 -0.1782 -1.0198 0.6019 -0.5526 0.7815 -0.3329 0.3994 -0.3776 1.6285 1.5663 1.6225 3.4409 1.7816 2.8235 5.3252 4.4717 0.3964 3.9978 4.7084 7.0358 4.6982 2.0032 4.0894 5.8351 8.0645 4.7334
0.2367 -2.0559 0.0596 -2.0275 -0.6742 -1.2794 0.4517 -0.3951 0.4957 -0.3211 0.1994 -0.9019 1.8762 1.4740 2.0078 4.0746 2.3376 3.4123 5.3447 5.0048 0.4263 4.9661 5.5279 7.6111 5.4897 3.8974 6.5135 7.7691 8.7777 4.7313
-0.5391 -0.2378 -0.2768 -1.8438 -1.0529 -2.3074 0.6372 -0.0559 0.6057 -0.2891 0.0131 -0.1201 2.3102 1.5191 2.5512 4.4913 3.2251 3.4471 5.6810 5.6491 0.4926 5.4763 6.1092 8.8630 8.0382 5.4851 7.5429 9.2278 10.9363 7.5353
-0.8631 2.0364 -0.8630 -0.0921 -0.2879 -2.1361 1.0582 0.3834 0.9655 -0.0217 -0.0736 0.8257 2.2469 1.5570 2.7193 4.8474 3.3667 2.9159 6.1365 5.3174 0.5722 5.1655 5.8478 9.1112 9.5754 6.1639 5.9423 7.8787 10.4261 8.9576
-0.9140 1.9833 0.0175 1.0953 0.5350 -0.8690 1.3901 0.1460 0.7557 0.0973 0.2141 0.8449 1.2315 1.4852 2.5415 4.9118 2.4350 2.1863 6.0093 4.8263 0.5448 4.5201 5.3318 8.6813 9.3395 6.6676 5.4214 7.2873 8.7752 8.4689
-0.9007 0.6641 1.5913 1.3005 0.7179 0.1421 1.4784 -0.2626 0.1635 0.1753 1.2872 0.4921 0.2559 1.3658 2.6972 4.0756 1.7741 1.7974 5.2886 5.4984 0.4014 4.0979 4.8414 8.9167 9.1379 7.1694 6.5316 8.1768 8.7156 9.2828
0.5945 -0.8491 -0.6212 1.7047 0.7635 0.6571 1.0106 0.4597 0.1097 0.4027 2.1955 0.7831 0.3537 1.0340 2.8341 2.6153 2.0806 1.7259 4.2582 6.1664 0.3639 3.8781 3.9508 8.4331 8.7310 7.2487 6.3021 6.8456 7.4003 10.1159
1.3554 -1.9662 -4.6711 2.0820 0.7075 0.9173 0.4986 1.8186 0.5663 0.3294 2.0518 1.6087 0.9004 0.4498 2.3302 1.7592 2.3167 1.5542 3.1109 5.3498 0.5634 3.5288 2.9140 6.1550 6.9437 7.3078 5.1022 3.8781 3.0794 7.4898
-1.4825 -0.7532 -3.1265 1.6849 0.3525 0.5472 0.8360 2.0518 0.7372 -0.0809 1.6184 2.5243 0.9819 0.0397 1.7594 1.5371 2.0014 1.3193 2.3379 4.0038 0.7382 3.0832 2.3680 3.9951 4.7130 7.4192 5.1324 3.3935 -0.3699 3.2525
-3.4087 1.6798 2.3336 0.9743 0.2844 0.0213 1.4486 1.1893 0.4550 -0.2026 1.6346 3.5051 0.8386 -0.0245 1.6495 0.9250 1.8245 1.1251 2.1480 3.1644 0.5895 2.5810 1.9093 2.8602 3.2199 6.2585 4.8343 4.0830 -1.2384 2.0336
-0.5908 1.7888 3.5032 0.6659 0.6666 0.2890 1.4723 0.9910 0.3682 -0.0137 1.7904 4.1991 0.9972 0.1172 1.6533 0.3633 2.0955 1.0705 2.1479 2.3143 0.3094 2.1454 1.2645 1.9431 2.4882 4.4884 2.9798 2.7916 -1.5320 3.7223
2.1396 0.6197 1.0947 0.9020 0.5977 0.1850 1.6264 1.7874 0.8292 0.0122 1.8506 3.9089 1.4984 0.6316 1.7727 1.4723 2.6602 1.6830 2.4285 1.6054 0.2978 2.6236 1.5652 2.0824 2.7335 4.9123 2.9870 2.7764 -0.2411 4.7195
1.7078 1.3153 1.2542 1.4451 0.0392 -1.3351 2.5795 2.1809 1.3148 -0.1103 1.8359 2.5580 2.0483 1.2571 2.1699 4.1403 3.2193 2.5327 3.0990 1.7530 0.5177 3.8722 2.8515 3.4945 3.6311 6.5676 5.8077 6.3041 3.6039 4.5094
1.3760 2.7064 3.3312 1.9365 0.0641 -1.9747 3.3048 1.8402 1.3866 -0.1212 1.5187 1.2851 2.3371 1.1129 2.1333 5.7381 3.3244 2.2042 2.9910 1.9179 0.6405 4.0847 3.0245 3.4870 3.3995 6.0010 6.9387 7.9577 5.6890 4.5748
1.9539 2.5135 3.8564 2.1553 0.5710 -0.3410 2.7979 1.6054 1.3262 -0.0416 0.9370 1.6851 2.3954 0.3655 1.1931 4.3389 2.9740 0.9698 1.3406 1.0593 0.5963 2.7829 1.2391 0.9535 1.1820 3.9923 4.8454 4.6371 2.7088 3.3448
1.8030 1.4002 3.5588 1.7743 0.5354 0.8028 1.6110 1.3381 1.3057 -0.0586 0.4808 3.3948 2.2157 0.0679 0.1218 1.4855 2.3408 0.3520 -0.4074 -0.1342 0.5364 1.2899 -0.8227 -1.6275 -1.4534 2.6947 2.5470 1.1866 -1.7995 -0.3497
1.4857 0.2313 2.9018 0.9420 0.1650 -0.0804 0.4727 0.5209 1.1817 -0.3174 0.0985 3.5025 1.4436 0.1925 -0.3675 -0.4623 1.2333 0.2452 -0.7413 -0.7982 0.5161 0.1790 -1.6983 -2.3155 -2.6473 0.8879 1.0888 1.3721 -2.0424 -2.7383
1.1125 -1.4772 0.2321 0.8901 0.2785 -0.6015 -0.6629 -0.1598 1.0945 -0.6657 -0.2978 0.4938 0.3149 0.0003 -0.5419 -1.6090 -0.2082 -0.3235 -0.3583 -1.2975 0.4892 -0.6606 -1.7519 -1.9014 -2.4613 -1.6017 -0.1509 2.6970 1.6353 -1.6970
-0.3127 -2.7404 -2.3137 1.7467 0.8188 0.3775 -1.3482 -0.1342 1.1079 -0.6769 -0.2127 -2.7434 -0.2717 -0.4247 -0.7729 -2.5133 -1.3551 -0.9873 -0.5113 -1.7782 0.4173 -1.0213 -1.8813 -1.7829 -2.0424 -2.5068 -0.3795 2.1920 2.6965 -0.8675
-2.4380 -1.1680 -0.4980 1.9191 1.2736 0.9884 -0.9100 -0.0546 1.0679 -0.3140 0.2594 -2.4346 -0.0509 -0.5460 -0.8536 -2.6142 -1.5671 -0.8371 -0.8041 -1.4428 0.3091 -0.8050 -1.8529 -1.7220 -1.3951 -2.2274 0.5042 1.2839 -0.0743 -1.3394
-4.1306 1.9011 3.4695 1.0377 1.0315 0.4687 -0.3122 -0.1322 1.2199 -0.1469 0.1533 0.9506 0.6296 -0.2090 -0.5901 -2.4327 -0.3701 0.1090 -0.3565 -0.5460 0.2342 0.1213 -0.9509 -1.0207 -0.1419 -2.3307 1.3263 2.0792 -0.6600 -0.2369
-3.9423 1.6918 3.3183 0.0353 -0.0620 -0.0007 -0.8396 0.2637 1.6626 -0.4867 -0.6360 3.4603 1.4781 0.3661 -0.4632 -2.7850 1.3684 1.1629 0.2739 -0.6853 0.2263 1.5047 0.1409 -0.7838 0.3842 -1.8370 1.7776 2.6014 0.5211 0.8686
-1.7513 -1.4449 -0.8704 -0.4989 -0.7396 -0.0937 -1.7252 0.7827 1.8768 -0.8286 -1.3221 2.5659 1.9318 0.7463 -0.8908 -2.5980 1.5912 1.7644 0.2780 -1.7066 0.1839 2.0487 0.3605 -1.5602 -0.4441 -0.9776 1.6153 1.2198 -1.2285 -0.6507
-0.8319 -2.0797 -3.5214 0.2006 -0.1529 -0.4636 -1.9947 0.5023 1.7727 -0.7064 -1.7117 -0.4067 1.6565 0.6791 -1.3600 -1.9216 0.4348 1.9191 0.2065 -1.7904 0.0069 1.5450 0.3407 -1.3986 -0.6876 -1.6314 0.5274 0.9886 -2.2239 -1.5983
-2.8111 -0.1557 -2.7383 1.8722 0.3299 -0.8884 -2.2420 -0.0716 1.6950 -0.4988 -1.9028 -2.1524 1.3694 0.4280 -1.3627 -2.7674 0.3683 2.0077 0.4912 -1.2023 -0.1769 1.7538 0.7755 -0.2885 -0.0286 -1.8333 0.3464 2.8443 -0.2376 -0.2189
-3.4857 -0.4524 -0.8237 2.0883 -0.1813 -0.6428 -2.4056 0.0498 1.4984 -0.5780 -1.4939 -1.0488 1.6322 0.5029 -0.9694 -3.8385 1.7238 2.2951 0.7909 -1.0795 -0.1066 3.2698 1.2549 -0.1531 0.1984 1.1557 3.1058 3.6310 -0.7287 0.8763
-0.2550 -2.6896 0.7374 -0.1124 -0.5407 -0.2722 -1.5445 0.3327 1.1724 -0.5725 -0.5363 1.0212 1.8762 1.1255 0.0037 -1.7515 2.5277 2.8491 1.6882 0.0219 0.1875 4.6976 2.2459 0.9526 1.9054 4.4589 7.0721 4.5761 -0.5705 2.5715
2.3065 -2.7941 1.4831 -2.0083 -0.2858 -0.7851 -0.3739 -0.0429 1.1543 -0.3437 -0.1341 1.4145 1.5815 1.7900 1.2655 1.9636 2.3360 3.3152 3.3102 2.8229 0.3361 5.0905 3.9095 4.7160 6.2060 4.1343 8.3193 7.9548 6.6587 6.1798
0.9931 -0.8461 1.5480 -1.4988 -0.0850 -1.2863 -0.0590 -0.4995 1.2390 -0.3317 -0.7404 0.4703 1.0558 1.6915 1.4373 3.2945 2.0764 2.9593 3.5297 4.3641 0.2062 4.4528 4.0651 6.4267 8.3626 1.6041 5.5784 8.4753 11.1771 7.3089
-0.0428 0.2581 2.6878 -0.6222 0.0911 -0.4694 0.2635 -0.3317 0.8720 -0.4796 -1.0346 0.3505 0.8622 0.9520 0.5284 2.9097 2.0659 1.9995 1.7396 3.1431 0.0707 3.4736 2.1820 3.6295 6.2226 1.3124 2.2676 3.5912 4.0549 4.5656
1.6622 0.6694 5.3283 -1.3371 0.2443 0.5500 1.6808 0.3285 0.3824 -0.3368 -0.0664 1.9500 1.3276 0.4870 0.5150 3.9491 2.4679 1.7351 0.7612 1.8905 0.0633 3.5210 1.4082 2.0002 5.3321 4.6684 2.9503 1.8465 -2.3040 4.2363
2.2615 1.9314 6.1265 -1.1105 0.1367 0.6615 3.1991 1.3144 0.4176 0.0006 1.1248 4.4577 2.0348 0.4583 1.7061 5.8888 2.9661 2.0869 1.5588 2.0862 0.0731 4.1900 2.4273 4.0725 7.9340 7.2007 5.9435 6.1765 1.9222 7.8697
1.0741 2.4898 3.1013 1.9109 0.5879 1.1520 3.2697 2.1353 0.7113 0.2461 1.5879 5.7085 1.8532 0.1969 2.1471 5.6986 2.2185 1.2517 1.4125 1.8842 0.1115 2.8509 1.4593 4.2325 8.3861 4.4897 4.0909 5.6487 4.4363 7.7700
1.9987 0.8958 0.1008 4.0090 1.8892 2.4052 2.1635 1.8838 0.6283 0.4393 1.7336 4.0648 0.6100 -0.3772 1.3801 3.1160 0.3076 -0.8672 -0.5685 0.9340 0.1864 -0.3834 -2.2786 0.2958 4.7478 0.3066 -2.7441 -3.2007 -3.7442 1.7677
3.8154 -0.5763 0.7835 2.6303 2.4983 2.8027 1.2935 0.9126 0.3387 0.4764 1.7030 1.1888 -0.2921 -0.6454 0.8928 0.9610 -0.6240 -1.9607 -1.9928 0.9495 0.1591 -1.7617 -4.4523 -2.5042 2.3461 0.5578 -6.0084 -8.3823 -11.1915 -1.9184
2.2639 -0.6523 2.5204 0.9708 1.6542 2.1743 1.0793 0.5221 0.2700 0.0941 1.2487 -0.3145 -0.0945 -0.4334 1.1185 0.8760 0.0685 -1.1408 -1.7426 1.7925 0.0948 -0.2303 -3.1472 -1.2553 3.6388 3.0489 -3.2079 -4.7253 -8.3976 0.1863
-1.0445 -0.7243 2.0529 0.9214 0.5140 1.4032 0.9942 0.6833 0.2377 -0.4913 0.6985 -0.5523 0.4049 -0.1517 1.2492 1.8707 0.8850 0.0301 -0.8054 2.2478 0.1793 1.4464 -0.9781 1.5326 5.7570 3.5825 0.0209 0.0511 -1.0372 3.0182
-2.5022 -0.1008 0.7519 0.5884 0.0769 0.2049 0.7740 0.5613 0.2609 -0.7246 0.1275 -0.4941 0.7206 -0.0322 1.0445 2.4138 1.2328 0.6240 0.3150 2.7196 0.2583 2.1774 0.5548 3.6788 6.8726 3.7629 2.0062 2.7808 4.3540 4.8883
-2.3584 2.0055 -0.0110 0.0172 0.3858 -1.1793 0.4073 0.3489 0.7411 -0.4428 -0.5366 -0.1806 1.0122 0.0384 0.8852 1.8407 1.5307 0.9923 1.3707 3.6755 0.1402 2.6932 1.8180 4.5510 6.8833 4.7303 4.0909 5.3391 6.6215 6.7269
-0.7620 2.6771 -0.6892 0.1363 0.9565 -1.5715 0.1098 0.4053 1.1609 0.0175 -0.5293 0.0573 0.9360 0.1910 1.0292 1.0092 1.6410 1.0726 1.7971 4.1116 0.0699 2.4551 2.1556 3.6313 5.5083 4.3396 4.2323 5.2988 4.9848 5.4034
2.6610 0.6849 -0.2116 -0.7990 1.0946 -0.8345 0.4635 0.3650 0.7179 0.3611 0.4366 0.0128 0.3657 0.4050 1.4449 1.5823 1.4780 0.7470 1.8967 3.5145 0.2451 1.4454 1.5424 2.2558 4.0708 3.0713 2.3531 2.7353 1.9641 1.3287
4.6000 -0.6107 1.7856 -2.5582 0.9539 0.7015 1.3917 0.2769 -0.0023 0.6536 1.3916 0.2233 0.0459 0.4262 1.8612 3.0767 1.1146 0.4816 2.0771 2.8510 0.3816 0.9150 1.4470 2.4437 4.3959 2.1169 1.2319 2.4192 2.5972 0.6052
2.4517 0.4485 2.8042 -1.3443 1.3655 2.4936 1.8202 0.5553 -0.1101 0.9314 1.6660 0.8718 0.3267 0.0430 1.9304 2.9793 0.3614 0.4647 1.7110 2.5071 0.2633 0.6881 1.7731 2.8872 4.9075 -0.1123 -0.0414 3.2353 4.8365 2.2515
-0.7874 1.8353 2.0846 2.6342 2.0013 2.8944 1.2952 0.9241 0.0475 0.9081 1.4216 1.8814 0.8181 -0.3818 1.4892 0.8534 -0.0880 0.5646 0.8980 1.6032 0.0589 0.2833 1.4139 1.2497 2.8698 -2.4819 -2.1839 1.2175 2.4660 -0.1291
-1.6380 2.2354 1.5325 4.1044 1.8873 1.6948 0.7474 1.1394 -0.0183 0.5879 1.1757 3.2890 1.2787 -0.3557 0.9009 -0.9803 0.5555 0.7765 0.8204 0.2084 -0.1396 0.5555 0.8976 -1.0458 -0.4992 -1.6673 -2.1550 -1.1764 -2.8791 -4.3352
-0.4420 1.4618 0.9997 1.9056 1.4570 1.4031 0.8998 1.5407 -0.0277 0.4821 1.5058 4.1458 1.5701 -0.1214 0.8796 -0.9064 1.0856 0.9308 1.3660 -0.1769 -0.3608 1.1937 0.8127 -1.2165 -1.6922 0.2961 -0.3472 -0.7813 -4.1244 -4.3965
0.6886 -0.4993 -0.6795 0.8234 1.6256 3.0379 1.2217 1.9816 0.2245 0.6677 2.0463 3.1054 1.5933 -0.0445 1.4231 0.5636 0.5523 1.0327 1.5826 0.9796 -0.4090 1.1086 0.7897 0.7007 0.1629 -0.1216 0.1418 1.1489 0.1973 -1.6467
0.4544 -1.4780 -1.0824 2.5673 1.8888 4.3643 1.4359 1.9437 0.6599 0.6663 1.7814 1.1472 1.7549 0.1484 1.6958 2.4987 0.6415 1.5166 1.6906 2.4162 -0.1738 1.3575 1.2246 2.9449 2.9642 -0.3272 0.5952 3.3660 4.8988 1.0740
0.1509 0.3388 2.2806 3.4300 1.3434 3.5760 2.1999 1.6659 1.2038 0.4033 1.0877 1.0797 2.3122 0.4801 1.5028 4.3798 2.3667 2.2623 1.9658 3.0055 0.0354 3.0113 2.3509 4.1102 4.4034 3.3491 3.0399 5.2266 5.4071 4.1091
1.7378 1.8815 5.3834 1.9016 0.3069 1.6028 2.9410 1.7339 1.4617 0.2508 1.2471 3.0273 2.7475 0.5111 1.6602 4.9360 4.0474 2.7490 2.0092 3.2024 -0.0086 4.7927 3.3559 4.2842 4.4667 8.6688 6.2684 6.5125 4.0498 6.6915
3.3098 0.3068 2.4839 0.3694 -0.3251 0.5788 2.1216 2.2494 1.1664 0.4438 2.0316 3.7192 2.8255 0.5187 2.5178 3.3093 4.5928 3.1658 2.2645 3.9705 -0.0907 5.6046 4.2284 5.4317 5.5162 10.7258 8.8382 8.7140 6.9047 8.3707
1.7501 -1.1177 -3.7672 -0.3553 -0.2732 1.1144 0.6302 2.8340 0.7743 0.8518 2.2025 1.8659 2.8268 0.8461 3.2095 1.6019 4.3329 3.4142 3.0586 4.7826 0.0002 5.3755 4.7554 7.7497 7.9533 8.2881 8.4741 9.9281 12.1058 9.7302
-1.4117 0.4308 -5.6516 -1.0004 0.2156 1.8370 0.5428 2.7092 0.5703 0.9466 1.5637 -0.1986 2.3984 0.6634 2.7438 1.7582 2.8810 2.3920 2.9517 4.1161 0.1823 3.6319 3.2561 7.7187 8.2857 4.9177 3.4616 5.6988 10.6743 8.6545
-2.4952 1.9298 -1.7871 -0.6164 0.7935 1.8887 1.2336 1.5086 0.2573 0.4689 0.7473 -1.0439 1.3340 -0.3504 1.3915 2.0899 0.6315 0.3737 1.3351 2.0592 0.3031 1.2650 0.2130 4.0280 5.2375 4.8726 -1.1251 -0.5401 2.3478 4.6596
-0.9795 1.5451 3.2377 1.1942 0.9492 1.4896 1.2918 0.1314 -0.1396 0.0130 0.1541 -0.7380 0.7510 -0.8680 0.5453 1.5419 -0.0129 -0.4920 0.2726 0.7645 0.2681 0.8214 -1.1299 0.8525 2.8855 8.0739 0.6504 -1.1488 -2.8543 2.5208
0.8955 1.8585 6.4167 2.4834 0.3784 0.6120 1.2945 -0.4132 -0.2449 0.0560 -0.0827 1.4626 1.3108 -0.3210 0.9651 1.7626 1.6042 0.3102 0.9704 1.6902 0.1164 2.2600 -0.1274 1.4586 4.1028 10.3473 4.5522 2.2535 -0.3480 4.5581
1.2822 3.0660 6.8532 2.4086 -0.3100 0.0147 1.5539 -0.1665 0.0580 0.2250 0.0113 4.2829 2.0614 0.1750 1.8123 2.5002 3.0376 1.0312 1.9141 3.5205 0.0661 2.9404 0.6454 3.6809 6.5769 9.6392 3.8675 3.1441 3.9515 7.4091
1.1057 2.5381 5.0085 2.2174 -0.3053 0.8002 1.4670 0.3645 0.6026 0.2514 0.3307 4.1380 2.3663 0.2175 2.1239 2.4874 3.0622 1.1426 2.3550 4.1887 0.1939 2.6557 0.6296 4.6591 7.6917 8.6846 1.7467 2.5159 4.9840 9.0924
2.8037 0.8207 4.3064 2.0583 -0.0332 1.8315 1.5897 0.6072 0.9862 0.3839 0.7437 1.7717 2.5453 0.4481 2.1168 3.3382 3.1994 1.6472 3.2942 3.9373 0.2864 3.4039 1.6216 5.1984 8.1078 9.6025 3.5024 4.6708 5.6112 10.5643
5.1810 0.4047 6.2291 1.1461 -0.4674 1.4722 2.2745 0.3247 0.9041 0.5519 0.8942 1.7069 2.4967 0.6321 2.0956 5.4084 4.0152 2.2125 4.2193 3.9183 0.2419 4.7572 3.0217 6.2504 8.6508 10.5910 6.1002 7.5378 8.4157 10.8934
4.0517 1.4567 6.2026 0.2937 -1.2210 0.3598 2.2755 0.4100 0.6703 0.4168 0.5853 4.0393 2.1624 0.2691 1.7464 5.2212 4.1411 1.7446 3.5124 3.5843 0.1860 4.6552 2.3270 5.9346 8.0893 9.9456 5.3416 6.8694 8.9228 8.7892
0.3327 2.7480 1.9829 0.4588 -1.1339 -0.2017 1.4886 1.6304 0.6887 0.1655 0.3165 5.1388 2.3315 0.0685 1.2883 2.5424 3.5506 0.9676 1.9155 2.5969 0.1356 3.6237 0.3745 3.8097 6.2157 8.6431 3.5215 4.1779 5.0619 6.6556
-0.2172 3.0005 -1.0517 0.7148 -0.4735 0.0318 1.6185 2.8943 0.7716 0.1559 0.6648 4.4348 2.9882 0.5603 1.4095 2.2208 3.6480 1.2381 1.5414 2.4629 0.0077 3.6021 0.4054 2.8781 5.2848 7.6696 3.4779 3.5720 3.1846 6.7519
2.8535 1.3895 0.6557 0.4868 -0.4535 0.6833 2.8225 2.8222 0.6868 0.1803 1.4131 3.5622 2.9405 1.0070 1.8703 5.3212 4.2405 2.0344 2.3315 3.5082 -0.1454 4.1351 2.0675 3.9913 5.9256 6.6545 3.8549 4.7681 5.4852 6.7090
4.4256 -0.4185 4.0809 0.7425 -0.8373 1.2504 3.4331 1.8011 0.6258 0.0440 1.8296 2.5998 2.1826 0.9759 1.9664 7.0752 4.2262 2.1215 2.5951 3.8481 -0.2231 3.7149 2.3233 4.0842 5.6639 5.6605 3.3670 4.3996 5.1102 4.1340
3.5419 0.0336 6.4261 1.3958 -0.4470 1.5160 2.9895 0.8657 0.7122 0.1618 1.6785 1.2750 1.8304 0.9265 1.9773 5.5083 3.8298 1.6959 2.1818 3.1939 -0.2186 2.8527 1.5000 2.5690 4.1333 4.8150 2.7528 2.5413 1.4745 2.1220
2.7955 1.7166 6.9117 1.2289 0.3108 1.3926 2.3440 0.3096 0.7924 0.6466 1.5462 0.5268 1.8304 0.9959 2.5668 3.5590 3.3882 1.4810 2.4241 3.4099 -0.1695 2.6016 2.1616 2.7312 4.3073 3.1385 2.1623 2.5741 2.4030 3.9800
1.4216 2.2277 5.2206 0.6738 0.3033 0.6249 1.8826 0.0981 0.6801 0.8432 1.9073 1.1261 1.3531 0.8766 3.2814 2.6154 2.3816 1.1674 3.0796 4.1984 -0.1435 2.3592 3.4768 4.4808 5.6506 1.0673 1.4889 4.0860 6.1451 5.4967
-0.5479 1.6567 3.6947 1.1544 0.1333 -0.0735 1.6658 0.0496 0.2760 0.6018 2.4042 2.3801 0.4789 0.5322 3.1242 1.6815 1.0823 0.3684 2.4768 3.3156 -0.2392 1.4403 2.9652 3.9170 4.0289 0.4774 1.3066 3.1720 3.7113 1.8696
0.9843 0.4521 3.9458 2.2899 0.6055 0.7627 1.6695 -0.0107 -0.0827 0.6119 2.4510 3.1790 0.0674 0.2315 2.2678 1.3241 0.8255 0.0104 1.0392 1.5013 -0.4270 0.8042 1.7262 1.7143 0.6843 0.6395 1.3486 0.9228 -0.8931 -1.9461
5.0983 -1.4325 2.9779 2.5399 0.7458 2.4650 1.4934 0.3274 0.2021 0.8844 1.9175 3.5889 0.7171 0.1630 1.6763 2.4046 1.9581 0.9224 0.6237 1.2744 -0.4864 1.3585 1.9913 2.0642 0.6532 0.0956 1.0831 1.7250 1.7254 -0.4003
5.5096 -2.1272 0.0889 1.6228 0.1101 2.7723 1.2591 1.2526 0.8790 0.7223 1.2334 4.1533 1.9475 0.1790 1.4446 3.5272 3.1456 1.9658 0.8237 1.8512 -0.3289 2.1382 2.5530 3.8885 2.6745 0.4950 1.0672 3.8297 6.0979 1.8733
2.7943 -0.3239 -0.1945 0.4410 -0.0225 1.9466 1.6686 1.9731 1.0695 0.3971 1.1991 4.7215 2.7044 0.1924 1.1727 3.4347 3.5387 1.9587 0.4908 1.4553 -0.2248 2.2675 2.1072 3.6953 2.4695 2.7828 1.9872 3.6374 4.2796 1.0379
2.6453 1.8637 3.0448 -0.2074 0.6329 1.7887 2.4083 1.9537 0.7742 0.6977 1.9376 4.8939 2.8698 0.5679 1.1447 2.8693 4.0367 1.9847 0.6578 1.3300 -0.3696 2.7999 2.5357 3.0717 1.5702 4.5830 4.0089 4.2012 2.4036 1.5552
3.8990 2.4966 5.1129 0.0153 0.9296 1.8771 2.3736 1.5885 0.5888 1.1498 2.2664 4.2920 2.9015 1.2833 1.5022 2.4654 4.9302 2.9288 1.8680 2.1664 -0.5306 4.0861 4.2193 4.0270 2.4655 4.4211 5.8574 7.1694 5.0004 4.3538
2.2918 2.1991 3.8152 0.6651 0.7018 1.5571 1.5975 1.3520 0.5346 0.9351 1.4537 2.7535 2.6382 1.5325 1.5784 1.9230 4.6937 3.3460 2.4445 1.9503 -0.5143 4.3925 4.3433 4.2005 2.9614 3.5302 5.0577 7.2235 5.4134 4.6433
0.1650 1.4640 1.4711 0.6997 0.5703 1.8196 1.0223 1.3470 0.5145 0.5801 0.6727 0.9202 2.0932 1.1066 1.2789 1.4164 3.0072 2.5561 2.0576 0.6699 -0.4855 3.4018 2.9054 3.0383 2.2605 3.3588 2.4356 4.0636 3.2416 3.1957
0.9017 -0.0683 0.4982 0.0516 0.3576 2.4269 0.8363 1.1895 0.5554 0.7641 1.1664 -0.2431 1.7312 0.7235 1.3873 1.2529 1.6606 2.0404 2.3298 0.7961 -0.5403 2.7964 2.8646 3.5881 2.9221 3.8196 1.7742 3.8558 5.6692 3.7476
1.9800 -1.3502 1.8995 0.1201 -0.0283 2.5106 0.9051 0.5274 0.2736 1.0854 2.3292 0.1033 1.4365 0.5700 1.9207 1.2237 1.3723 2.0202 2.9761 2.0381 -0.5500 2.5748 3.5499 5.1803 4.1480 3.6312 2.6754 5.1735 8.8454 3.7305
1.3076 -0.1333 4.9488 1.6184 0.2197 2.8486 1.7020 0.2671 -0.1933 1.2509 2.9294 2.4678 1.4067 0.4240 2.1657 1.5589 1.7323 1.4485 2.4389 2.0691 -0.4920 1.9469 2.2998 4.2016 3.1706 2.9261 2.1695 2.5542 4.1121 0.8831
1.1735 3.4788 6.7207 2.8696 1.1228 3.2267 3.0027 1.4221 0.0651 1.4904 2.8112 5.4842 2.4369 0.6297 2.1765 2.5172 3.1825 1.1603 1.7283 1.5522 -0.4530 2.2970 0.8393 2.1792 2.1765 3.7401 1.7995 0.0157 -1.9322 0.6017
2.4344 5.4705 5.3326 2.0563 1.3904 2.4207 3.3867 2.7562 0.7761 1.5581 2.5372 6.2906 3.5024 1.0602 2.3558 3.2439 4.9865 1.9379 2.5425 2.4974 -0.4605 4.0937 1.7139 3.1249 4.3644 5.8223 3.6453 2.7688 1.5658 5.6886
3.1163 3.1981 2.7535 0.5262 0.6520 1.5093 2.5084 2.4970 0.7829 1.1590 2.3839 4.3204 2.6642 0.8103 2.4115 3.1377 4.8723 2.0291 3.5767 3.9825 -0.5555 4.8038 2.6930 5.4503 7.0906 6.6150 5.4127 6.2531 9.2206 9.3212
2.6413 0.3091 1.5995 0.8070 0.0958 1.5242 1.7572 1.3290 0.3872 0.7220 2.1069 2.0732 0.7813 0.0440 1.9938 2.9984 3.2350 0.5801 3.0017 4.0679 -0.7468 3.4508 1.3282 5.3988 6.6766 6.2333 5.4837 5.7504 10.3521 6.8798
2.1921 1.0392 1.6436 2.3415 0.4493 1.2562 1.8726 0.8397 0.5225 0.6360 1.4894 1.3363 0.0364 -0.2476 1.2674 3.2571 2.4511 -0.7160 1.5622 2.8311 -0.8633 1.8829 -0.9416 3.4729 4.2660 6.1587 4.4395 3.0028 5.6431 3.1365
2.5141 3.5215 1.6134 3.0389 1.2124 0.5513 2.2590 1.0786 0.8076 0.7110 0.9179 1.8104 0.3063 -0.1537 0.5677 3.3523 2.3785 -1.0183 0.5189 1.2149 -0.7365 0.9360 -2.4784 1.6257 2.3636 5.5447 2.2559 0.1886 0.5263 2.6128
3.1389 4.1716 1.4063 2.8581 1.6282 0.6206 2.6041 1.5419 0.6263 0.7338 0.9528 3.0538 0.5411 -0.1995 0.3642 3.4843 1.9110 -0.9505 -0.0904 0.1655 -0.4471 0.5392 -2.9378 0.6327 1.8009 4.4774 0.8404 -0.8548 -2.0637 3.9291
3.0370 3.0642 1.3052 2.3791 1.3221 1.4062 2.8756 2.0918 0.3570 0.8145 1.6746 4.5623 0.8985 -0.0889 1.0473 3.8286 1.9512 -0.5685 -0.2075 0.8378 -0.2101 1.2594 -1.6545 1.6494 2.8938 5.0187 2.6839 1.7118 0.1823 4.9468
2.2373 1.8994 1.6429 1.2882 0.6334 2.2326 2.7462 2.2554 0.5256 1.1089 2.7216 5.0365 1.4517 0.3504 2.1953 3.3545 2.8057 0.0454 0.3133 2.7146 -0.1219 2.3045 0.4958 4.2206 4.5797 5.9903 4.9369 5.0419 5.3050 5.3357
2.0401 1.4365 3.0007 0.4302 0.3006 2.8764 2.5607 1.6243 1.0784 1.4018 3.2848 4.0012 1.5382 0.5587 2.7095 2.7074 2.8056 0.0195 0.6524 3.2275 -0.1244 1.8575 0.8542 5.2001 4.5450 4.1198 3.5026 4.6031 7.0160 4.8638
2.9836 1.3175 4.7281 1.1465 0.4244 2.9824 2.8344 0.6212 1.4778 1.2332 2.6080 2.5752 0.9416 0.1633 1.9532 3.7128 1.4098 -0.9176 -0.2100 1.2499 -0.1559 0.1814 -1.0574 3.1768 2.3835 0.5227 -0.1040 0.9314 3.4482 3.1213
3.8307 0.8750 4.8566 2.1927 0.5554 2.2488 2.7029 -0.1329 1.2148 0.6383 1.2577 1.6064 0.1179 -0.5611 0.4891 4.3814 -0.0187 -1.9227 -1.8364 -1.3148 -0.2207 -1.1534 -3.1540 0.1497 -0.3197 -1.0304 -2.5329 -2.7570 -1.9565 0.8305
3.2924 0.4439 3.0885 1.7532 0.5718 1.0524 1.4526 -0.5457 0.5437 0.2088 0.6062 0.8814 -0.3901 -1.0885 -0.4465 1.9192 -0.6218 -2.2428 -2.5780 -2.3153 -0.2874 -1.6966 -3.8189 -1.3195 -1.9029 -0.6306 -3.1998 -4.3104 -4.9195 0.4692
1.6156 0.4889 1.2977 1.1277 0.6439 0.4041 0.2415 -0.7441 0.2332 0.1361 0.7080 0.0427 -0.3027 -1.1939 -0.4140 -0.9102 -0.7176 -1.9724 -1.9243 -1.9185 -0.2788 -1.6939 -2.8827 -0.4346 -1.4600 -0.9285 -2.4908 -2.6823 -2.4948 2.7355
-0.2612 0.3776 -0.0181 2.1427 0.8442 0.9264 0.1179 -0.4417 0.6279 0.0336 0.5133 -0.9403 0.2220 -1.0796 -0.2340 -0.5492 -0.5804 -1.5210 -1.2460 -1.7618 -0.1999 -1.3192 -1.6004 0.8609 -0.4318 -2.0435 -1.2326 -0.1470 2.1111 3.2952
-1.2577 -0.1470 -1.5114 3.3733 0.9813 1.8098 0.5030 0.4785 1.3373 -0.1016 0.0105 -1.6503 0.7009 -0.9107 -0.4848 1.2435 -0.1926 -0.9880 -1.3299 -2.1768 -0.1329 -0.8933 -1.6110 0.2898 -1.0985 -2.7729 -1.2359 -0.6952 2.2187 -0.4010
0.0412 -0.6159 -1.4294 2.7948 0.7565 2.0492 0.7736 0.9724 1.5275 0.1027 0.0313 -1.6489 0.6572 -0.8007 -0.8041 1.9141 -0.0257 -0.5957 -1.5839 -2.1076 -0.1335 -0.7780 -2.6952 -1.5279 -2.7454 -3.4570 -2.7842 -3.7902 -2.0984 -3.5633
3.0137 -1.0945 1.3669 1.7074 0.4134 1.9202 0.9130 0.3192 0.9548 0.4335 0.4603 -1.2563 0.2767 -0.9760 -0.9854 1.6175 -0.3870 -0.7306 -1.9566 -1.9516 -0.2135 -1.0535 -3.3645 -3.2226 -3.9533 -4.1512 -3.9026 -5.9164 -6.3478 -3.4298
4.1309 -1.3326 3.4947 2.2461 0.4391 1.8151 0.4522 -0.2740 0.6206 0.4509 0.5729 -0.8201 0.6551 -1.1063 -1.0146 -0.0827 -0.0146 -0.7431 -2.3876 -2.8301 -0.3660 -0.9603 -2.8312 -4.4059 -5.1085 -3.4058 -2.9577 -5.4092 -7.9738 -3.7604
1.6890 -0.3901 2.7016 3.1129 0.5131 1.6175 -0.7875 0.2372 1.2051 0.3775 0.2386 0.2555 2.2182 -0.5362 -0.5831 -3.3700 2.0033 0.3655 -1.8537 -3.7223 -0.5500 0.3823 -1.2138 -3.9146 -5.4014 -1.0042 -0.2827 -2.0977 -4.9235 -5.0201
-1.4577 1.4252 1.6087 2.3016 0.1206 1.4824 -1.4870 0.9827 1.7963 0.4334 -0.4553 2.1453 3.4970 0.3059 -0.0769 -4.9428 3.6196 1.6756 -0.7724 -3.6314 -0.6573 1.8036 0.0661 -2.1134 -4.1147 0.5969 1.7532 1.2832 0.5484 -4.1387
-1.7611 2.5304 1.7420 1.2586 -0.3642 1.2068 -0.6942 1.0437 1.4954 0.2963 -1.3540 3.4305 3.1223 0.4107 -0.4005 -2.5464 2.8584 1.5775 -0.8434 -3.6005 -0.6009 1.4355 -0.5166 -1.8613 -3.4617 -0.3217 0.9420 0.2443 1.6858 -2.0313
0.9122 2.2598 1.4080 1.2758 -0.4336 0.4363 0.5012 0.8368 0.8570 0.0466 -1.6250 3.2300 1.9676 -0.0705 -1.0721 0.7407 1.3927 0.6683 -1.4268 -3.6178 -0.4564 0.3141 -1.5974 -2.7038 -4.0314 -1.3833 -0.9645 -2.9465 -0.4203 -0.3089
3.4456 1.6219 0.3878 1.0405 -0.2367 -0.0008 1.0858 1.0888 0.7781 0.2654 -0.6183 2.9235 1.7806 -0.2546 -0.7362 1.8852 1.4694 0.5422 -0.5380 -2.3748 -0.3614 0.6474 -0.8110 -1.3066 -3.3208 0.5151 0.1396 -1.4874 1.4171 1.4315
3.2620 1.8016 0.4571 1.1784 0.0177 0.6143 1.5454 1.7550 1.1639 0.9251 1.1214 3.5161 2.6154 0.0050 0.5366 1.7060 2.4387 1.1185 1.2852 -0.5709 -0.3260 1.8449 0.9198 1.4343 -1.3846 3.8011 3.8994 3.0219 5.4666 2.1905
1.6837 2.1486 1.8705 3.0638 0.3642 1.8641 2.0205 2.1021 1.3040 1.4952 2.7512 3.4551 2.8353 0.2281 1.6254 0.9954 2.6296 1.2413 2.0693 0.3781 -0.2705 1.8741 1.1960 2.1143 -0.6251 4.6093 5.3014 3.1979 5.0778 1.7793
1.4686 1.0867 2.7741 3.9378 0.5905 3.3920 1.9731 1.7490 0.9148 1.8311 3.8171 1.6772 1.6537 0.2077 2.2879 0.0024 1.7734 0.5755 1.8430 1.2922 -0.1496 0.7048 0.4095 1.5546 -0.5284 2.9927 3.0925 0.1974 2.3701 2.3189
2.6776 -0.4103 2.5235 1.9213 0.4375 4.3070 1.8552 1.0698 0.3284 2.0258 4.0073 0.0363 0.3720 0.2087 2.9048 0.6523 0.8548 -0.1777 2.0228 3.2483 -0.0097 -0.0201 0.6184 2.7468 1.2743 2.1676 1.8360 0.9209 3.2963 4.3796
4.0229 0.3985 3.2485 0.5561 0.3630 3.3199 2.5493 0.4557 0.0105 2.0259 3.5405 0.2421 0.1987 0.4197 3.1722 3.3840 0.9070 -0.4016 2.6100 4.9564 0.0698 0.3924 1.7875 5.0027 4.1172 3.4820 3.5688 4.2690 6.4087 6.6133
4.6005 3.1527 5.4625 2.2119 0.9058 1.6893 3.7381 0.3782 0.2846 1.8051 3.0012 1.8041 0.7788 0.5872 2.5548 5.7815 1.9832 -0.1270 2.5471 4.7637 0.1102 1.3106 2.3766 5.7007 5.1283 6.1039 6.0073 5.1124 7.3633 7.4567
3.3499 4.5524 6.1507 4.1093 1.3525 1.9051 4.4480 1.2409 0.9383 1.4603 2.4875 3.9686 1.5156 0.4694 1.5976 6.8386 3.2147 0.4206 2.1189 3.6054 0.1547 2.3046 2.4261 5.2702 4.2246 8.6064 8.5655 5.3837 7.1566 6.4330
1.3543 3.5938 4.7272 3.6118 0.8040 3.2107 4.4962 2.0238 1.0237 1.1899 2.1460 5.5645 1.8485 0.1217 1.4577 7.5808 3.5248 0.6992 2.3642 3.5261 0.1317 2.7471 2.6389 5.6146 4.1514 8.5148 10.2238 7.1313 7.7925 5.8798
1.6788 2.5230 4.5048 1.8224 0.0790 3.3201 4.4906 1.4456 0.2436 1.1748 2.4942 4.6915 1.1358 -0.3755 2.1493 8.1771 2.6320 0.1043 2.9810 4.2936 0.0328 1.7738 2.4808 6.4439 5.8950 5.0857 7.6443 6.6799 8.3833 8.0440
4.0688 2.5988 6.0722 0.9017 0.2860 2.7026 4.6466 0.4815 -0.1876 1.3851 3.2950 2.3917 0.2080 -0.7608 2.6447 8.0994 1.8398 -0.5148 3.3202 4.3204 -0.0108 0.5951 2.1285 6.9341 7.7297 1.9241 2.9228 4.5672 9.5092 10.7976
5.1519 2.6723 5.7667 0.9129 0.6926 2.6572 4.3168 0.7370 0.2872 1.6782 3.7409 1.9345 0.4145 -0.6602 2.5420 6.9536 2.1629 0.0083 3.6665 3.6002 0.0027 0.9161 2.3329 6.9961 7.8276 1.8589 1.4419 4.1972 10.5291 10.2963
3.7729 1.9338 1.7204 0.9858 0.4082 2.8005 3.1569 1.7730 0.5191 1.8845 3.6708 2.9268 1.0171 -0.3309 2.1257 4.5460 2.2677 0.5581 3.7858 2.8457 -0.0278 1.3184 1.7517 5.7294 5.7859 2.9778 1.6825 2.2471 6.6047 6.7748
1.5610 1.0653 -2.5804 1.6430 0.2089 3.3331 2.0520 2.2932 0.1561 1.8848 3.2689 2.4671 0.7446 -0.3873 1.4868 2.3398 0.9276 -0.2240 2.8543 1.8812 -0.0216 0.1610 -0.2770 3.3227 3.1770 2.7426 0.2935 -2.5107 -0.3448 4.4437
-0.1106 0.8450 -2.5929 3.0008 0.6636 4.5589 1.7867 1.7949 0.1604 1.7693 2.4778 0.6005 0.1426 -0.7843 0.7624 2.2079 -0.6681 -1.2661 1.3698 0.7013 0.1316 -1.0411 -1.1654 2.1946 2.0716 1.2599 -0.1475 -3.1920 -0.9160 4.6317
-1.0187 1.2198 0.9584 3.3366 0.9431 4.4278 1.6580 0.4604 0.5474 1.5436 1.4723 -0.6480 0.0701 -0.9578 0.3189 2.7100 -1.1115 -1.3946 0.4971 -0.1852 0.3307 -0.9283 0.0800 2.6241 2.1116 -0.0894 1.9782 1.3229 4.4300 3.6369
-1.2489 1.8124 3.9419 2.1869 0.5800 2.1931 1.0034 -0.7493 0.6621 1.1048 0.7227 -0.5309 0.3042 -0.6944 0.1879 1.4417 -0.5293 -1.0931 0.1430 -0.7061 0.4744 -0.5088 0.7306 2.0248 1.3704 -0.1760 3.2236 3.3840 5.4355 0.6607
-0.9883 2.6166 5.1323 1.0190 0.1291 0.5940 0.6268 -0.9032 0.6482 0.7325 0.3531 0.2329 0.3361 -0.4267 -0.0836 -0.2885 0.0356 -0.8682 -0.3190 -1.0393 0.5686 -0.7704 -0.5698 -0.2206 -0.7347 0.8120 1.7815 0.4808 0.0103 -0.5116
-0.1596 2.9367 5.1521 0.2952 0.1527 0.6822 0.7969 -0.6681 0.6600 0.6620 0.1231 0.1808 -0.1110 -0.6626 -0.7958 -0.6556 -0.6130 -0.8720 -0.6274 -1.2211 0.5287 -1.7139 -2.1029 -2.3673 -3.5289 0.9669 -0.5753 -2.6968 -4.8709 -0.2044
1.9594 1.1706 3.2122 -0.1927 0.7297 0.7985 0.2589 -1.1646 0.3797 0.5909 -0.1103 -1.5005 -0.9135 -1.2286 -1.4908 -1.0949 -2.3107 -1.4049 -0.4861 -1.5111 0.2805 -3.0279 -2.8189 -3.7090 -5.8536 -1.1752 -3.1088 -4.3329 -6.1897 -1.6595
4.9370 -1.9763 0.3351 -0.0826 1.3464 1.0649 -1.0881 -1.9809 -0.0520 0.4758 -0.3507 -3.9570 -1.5697 -1.5800 -1.5949 -2.4807 -3.3973 -2.2161 -0.7002 -2.2598 0.0015 -4.0605 -3.4905 -4.6181 -6.5501 -4.1267 -6.2719 -6.7184 -6.4369 -3.0357
6.1942 -3.2699 -0.4570 0.2226 1.5100 2.2744 -1.8071 -2.2456 -0.1740 0.6621 -0.6198 -5.6706 -1.9777 -1.6714 -1.5357 -3.4860 -3.6164 -2.8319 -2.0623 -3.4634 -0.0873 -4.6060 -4.5536 -5.4102 -6.4429 -5.4430 -8.7371 -9.7721 -7.0903 -2.4194
3.8036 -1.9536 -0.3858 0.0388 1.4171 2.9251 -1.9815 -2.0346 -0.0410 0.8905 -1.0403 -5.6121 -2.4671 -1.7804 -2.0760 -4.5335 -4.3385 -3.4336 -3.8118 -4.9050 -0.0514 -5.3985 -5.4436 -6.6197 -7.6841 -5.8699 -9.1010 -11.0808 -7.8329 -3.6329
-0.8700 -0.9179 -3.0027 -0.1904 1.1239 2.4142 -2.9601 -1.6792 -0.0071 0.6789 -1.7523 -4.1809 -2.9575 -1.8437 -2.8631 -6.8567 -5.3666 -3.9541 -4.3516 -5.9127 -0.0458 -6.3963 -5.6106 -7.9418 -9.8096 -7.3384 -8.3022 -10.1710 -8.1400 -7.8420
-4.1024 -1.6919 -6.1465 -0.0450 0.5912 2.2775 -4.3322 -1.5672 -0.1134 0.3505 -2.5368 -3.3439 -3.2012 -1.7111 -3.0864 -8.7802 -5.5963 -3.8313 -3.4597 -5.5623 0.0554 -6.6408 -5.2314 -8.0273 -10.4947 -8.7143 -7.4471 -8.2358 -7.0417 -10.1590
-3.5356 -2.3063 -5.6326 0.4067 0.6738 2.0065 -4.6389 -2.2821 -0.1388 0.2966 -2.9335 -4.1166 -3.3661 -1.6557 -3.0420 -8.5511 -5.8118 -3.5910 -2.8383 -4.6272 0.3821 -6.7420 -5.2691 -7.3905 -10.2392 -9.1017 -7.1326 -7.2201 -5.2738 -9.4877
-0.7870 -1.5994 -3.2172 1.1222 1.5345 0.3307 -3.9661 -3.4306 0.0080 0.1692 -2.8331 -5.2116 -3.5149 -1.8911 -3.4788 -7.4652 -6.8280 -4.3205 -3.6383 -5.1563 0.6565 -8.1094 -6.3702 -8.2272 -11.1765 -10.3827 -8.8324 -9.4399 -6.2434 -10.0272
0.6360 -1.0401 -1.8268 1.5711 1.7792 -0.5913 -3.1881 -3.8436 0.1842 -0.1859 -2.5010 -5.6224 -3.5117 -2.1197 -4.1308 -6.7672 -7.5297 -5.5054 -4.7754 -6.9201 0.5968 -9.8916 -7.7300 -10.2909 -12.6230 -12.1969 -12.1548 -13.5549 -10.4460 -12.3958
-0.4922 -0.6357 -0.1410 1.4938 1.1555 0.6485 -2.4214 -3.5753 0.2316 -0.3256 -2.4598 -5.9123 -3.5865 -2.1800 -4.3771 -5.7641 -7.3205 -5.8166 -5.0744 -7.7794 0.3573 -10.2612 -8.0826 -11.1496 -12.7280 -11.7919 -13.6735 -14.7973 -13.0841 -13.2465
-1.6930 0.7088 2.2301 1.3820 0.8410 1.2646 -1.7517 -3.5994 0.1668 -0.2021 -3.1426 -6.3438 -3.7690 -2.1970 -4.3469 -4.0754 -6.8937 -5.1998 -4.8592 -7.3749 0.1945 -9.1320 -7.2355 -10.3496 -11.9177 -9.4725 -11.8414 -12.3442 -11.7075 -11.7615
-0.6472 1.2083 2.5449 1.0334 0.8404 0.2180 -1.7215 -3.7573 0.0939 -0.1855 -3.9838 -6.4636 -3.5363 -1.9275 -4.1653 -2.8015 -6.2240 -4.4423 -4.3662 -6.7474 0.1690 -7.3549 -5.9092 -9.4561 -11.1648 -7.4685 -8.7718 -9.9564 -10.0478 -9.7476
0.1669 -0.0474 -0.3502 0.3477 0.5159 -0.1066 -2.4420 -3.1212 0.0287 -0.2006 -4.0308 -6.3249 -2.8846 -1.2213 -3.3293 -3.2638 -5.0729 -3.8475 -3.2661 -5.8291 0.2289 -5.6053 -4.6263 -8.4932 -9.4898 -5.9274 -6.2395 -8.3973 -9.3141 -7.1540
-1.5088 0.1750 -3.9205 0.5719 0.2722 0.3033 -2.8678 -1.8122 -0.0061 0.0988 -3.3258 -5.7026 -2.2887 -0.6533 -1.8104 -4.2720 -3.9721 -3.2012 -1.8692 -4.1530 0.2294 -4.4088 -3.1583 -5.7695 -5.4406 -3.7504 -3.9390 -4.7650 -4.6014 -2.4422
-1.5353 2.6780 -3.9711 1.9539 0.4698 -0.1191 -1.6675 -0.7693 0.1279 0.6679 -2.1552 -3.0962 -1.6417 -0.6296 -0.6037 -2.7553 -2.9152 -2.4185 -0.7803 -2.4446 0.0890 -3.5700 -1.4884 -1.9986 -0.4801 -0.6494 -1.4162 0.1000 3.1064 2.0530
1.7778 3.9503 -0.2670 2.7690 0.7014 -0.3762 0.3523 -0.1823 0.4241 1.1032 -0.6053 1.3089 -0.8603 -0.8258 -0.3904 -0.0118 -1.5179 -1.9168 -0.1680 -1.8503 0.0042 -2.6103 -0.7261 -0.9310 1.1615 2.3579 0.8557 1.1329 3.9335 1.2378
2.5817 3.2016 1.0914 2.1207 0.9727 0.3454 0.7910 0.5316 0.6053 1.1820 0.5796 3.4233 -0.5818 -1.0037 -0.6191 -0.7946 -0.6961 -2.1039 -0.0653 -2.2303 0.1703 -2.0203 -1.6483 -3.3904 -1.5962 3.5981 1.8551 -2.6109 -3.7452 -3.1424
0.0880 2.4286 -2.7834 1.1035 1.5867 0.9008 -0.1390 1.4424 0.4907 1.2190 1.2333 0.5891 -0.9481 -1.2069 -0.4325 -3.7728 -1.4519 -2.6261 -0.2416 -2.1593 0.4221 -2.4225 -3.2321 -5.2297 -4.0302 2.5943 0.8843 -6.1463 -9.2259 -3.5804
-0.5772 1.8842 -5.9819 1.2619 2.0359 1.5555 0.0417 2.1056 0.2621 1.5595 2.3135 -3.3747 -1.0157 -1.1621 0.2531 -3.5131 -2.5181 -2.7384 -0.0908 -0.8906 0.4683 -3.0295 -3.7490 -3.9291 -2.6810 0.4891 -1.0436 -5.9640 -7.5748 -0.1280
-0.6599 2.0101 -4.3624 2.9060 1.7809 3.3604 1.5439 2.5395 0.2054 1.9880 3.5218 -3.4459 -0.1979 -0.6221 0.9993 -0.4569 -1.9586 -2.1490 0.7361 0.8533 0.2831 -2.6466 -2.4625 -1.3025 0.4059 -1.5815 -1.9706 -3.2104 -3.4983 1.5463
-1.6923 3.5657 -0.5580 3.9078 1.1485 4.7945 2.8635 2.6230 0.2220 2.1705 3.7206 -0.1685 0.8016 0.0205 1.6720 2.1939 -0.2892 -1.1704 2.0869 2.4601 0.0875 -1.6049 -0.2923 1.3279 3.2837 -2.7171 -1.9922 -0.5172 1.0177 3.0988
1.4850 4.2422 3.9620 2.0127 0.4932 3.9044 3.7775 1.5120 -0.0580 2.0420 3.2928 2.7977 0.9736 0.3096 2.2072 4.7827 0.5651 -0.5188 3.2079 3.6561 0.1032 -1.1362 0.8041 3.4986 5.8167 -1.9835 -2.5524 0.0058 5.0405 6.8797
7.2259 2.8043 9.2571 -0.6729 0.1083 1.9412 4.3501 -0.5496 -0.5303 1.5997 2.9218 3.5374 0.1543 0.2877 2.0039 6.8534 0.0316 -0.8386 3.0122 3.5465 0.2824 -1.6252 -0.1360 3.0934 6.0850 -0.1825 -3.2855 -2.0582 3.6305 7.0132
7.1347 2.3969 12.1382 -0.4636 0.5814 1.3202 4.2017 -1.7726 -0.6821 1.1527 2.5525 2.0728 -1.0320 0.0764 1.0815 6.1865 -1.1753 -1.8506 1.6800 2.3536 0.2749 -2.6196 -1.8300 0.5005 4.0045 0.2346 -3.3958 -4.1645 -1.6654 3.0162
3.7632 3.6729 10.4450 1.3470 1.5606 1.8285 3.7121 -1.4122 -0.4247 1.2295 2.6471 -0.0869 -1.5907 -0.1764 0.8097 4.2624 -1.8364 -2.3296 0.8024 2.1934 -0.0466 -3.1800 -2.3691 0.0361 3.7361 -0.8766 -3.4627 -3.4518 -1.9117 2.9818
5.1535 3.1804 6.7245 1.5956 1.7144 1.6220 3.4313 -0.3999 -0.0482 1.5716 3.2071 -0.3101 -0.7456 -0.0872 1.5530 4.2242 -0.8832 -1.5795 0.9423 3.4267 -0.2875 -2.2060 -1.6512 2.2219 5.7778 -0.4645 -2.7941 -0.9388 2.3837 5.8873
7.7344 1.2606 4.0338 1.3891 0.9403 0.4665 3.2105 0.4882 0.2978 1.3614 2.9581 1.8572 0.8867 0.2737 1.7479 5.3088 0.7231 -0.5091 1.1560 3.7113 -0.1841 -0.2629 -1.1435 2.7106 5.7407 2.4400 0.1607 0.2349 2.5442 4.5006
4.8179 1.3292 3.1009 2.3440 0.5393 -0.4213 2.7089 0.8839 0.5119 0.6969 1.8360 3.1993 1.5039 0.3170 0.8972 4.6013 0.7572 -0.3363 1.0536 2.3572 -0.0226 0.4829 -1.5236 0.6926 3.4286 4.3358 3.3382 -0.3879 -0.4034 1.2403
0.7021 2.3640 3.5467 2.7516 0.9042 -0.3858 1.8701 0.4212 0.5265 0.4467 1.2696 1.4356 0.4946 0.0696 0.3546 2.1186 -0.6578 -0.8241 0.9771 1.3675 -0.0441 -0.4593 -2.0612 -0.6684 2.3658 2.8621 2.9200 -1.4403 0.0120 0.8526
1.4642 1.7416 4.5583 2.1128 1.2262 0.4732 1.2411 -0.4432 0.5573 0.7891 1.3464 -1.1899 -0.6234 0.0641 0.4817 0.8479 -1.4097 -1.0384 0.7525 1.5241 -0.1173 -1.4433 -2.2584 -0.8069 2.2523 0.2661 -0.3529 -2.5428 1.1365 0.8979
3.9664 1.0984 4.3529 1.9687 1.3027 1.4776 1.3042 -0.6030 0.7706 1.1578 1.0705 -1.8415 -0.5472 0.3200 0.3855 1.7149 -1.0780 -0.9804 0.1107 1.5802 -0.1382 -1.7846 -2.4258 -1.1698 0.9284 -1.4562 -2.7498 -3.3816 -0.8785 -0.2471
3.8305 1.7785 1.6515 1.4361 1.4849 1.5076 1.3582 -0.0142 0.8544 1.2245 0.6155 -1.4700 0.0558 0.6361 0.0659 2.1106 -1.0466 -1.1093 -0.5075 1.1309 -0.1073 -2.2963 -2.6978 -1.5386 -0.8254 -3.1828 -3.9029 -3.8489 -2.0868 -1.1470
2.9996 1.4810 -1.2178 -0.4802 1.3619 0.4594 0.6950 0.0827 0.4812 1.0013 0.3918 -1.9696 0.1561 0.9772 -0.0767 0.9740 -1.7593 -1.2203 -0.6127 0.6807 0.0317 -3.1193 -2.8494 -1.6770 -1.9055 -4.5592 -5.2438 -4.7767 -1.1227 -2.4454
3.2333 -0.1513 -0.9500 -1.5252 0.4821 -0.6198 -0.1825 -0.9772 -0.0918 0.5319 -0.3507 -2.9535 -0.1764 1.0040 -0.5672 0.0675 -2.5967 -1.1200 -0.5151 -0.1331 0.1472 -3.6968 -2.9746 -2.6645 -3.2504 -4.1745 -5.7445 -5.9915 -2.6045 -4.2110
2.2869 -0.7739 0.5495 -0.7665 -0.3399 -1.0472 -1.0351 -2.4253 -0.3750 0.0774 -1.7983 -4.0013 -0.8840 0.4476 -1.5857 -0.7736 -3.6582 -1.4730 -0.8052 -1.5662 -0.0333 -4.3957 -3.3403 -4.4477 -5.2922 -3.8995 -5.2723 -6.7010 -6.2273 -4.9973
-0.2834 -0.8275 -0.8759 -0.4122 -0.2578 -0.7326 -2.3903 -3.2449 -0.3157 -0.0879 -2.7875 -4.9361 -2.0556 -0.2364 -2.2280 -3.2600 -5.1154 -2.5345 -1.1881 -2.8403 -0.3412 -5.6592 -3.6729 -5.5278 -7.0181 -5.9712 -6.0835 -7.0790 -6.8211 -5.9440
-1.9882 -2.1136 -4.2214 -0.9315 -0.0421 -0.3644 -3.8795 -3.1477 -0.2668 -0.2289 -2.9037 -3.9992 -2.6891 -0.5596 -2.1736 -6.2448 -5.8710 -3.1154 -0.9590 -3.7215 -0.2905 -6.3482 -3.5568 -5.7198 -8.0544 -8.2492 -7.4767 -6.9185 -4.4711 -8.3356
-2.0804 -3.1003 -5.3677 -0.7618 -0.4852 -1.1405 -4.2960 -2.4977 -0.4234 -0.5584 -2.7552 -1.6674 -2.0293 -0.5855 -2.0651 -7.1961 -5.1881 -2.4754 -0.4987 -4.5061 0.0813 -5.4688 -3.2439 -6.2186 -8.7323 -8.1844 -6.7498 -6.0167 -3.7647 -10.1046
-1.5433 -1.7270 -3.0727 -0.1420 -0.6147 -2.3562 -3.3713 -2.0235 -0.5954 -0.5801 -2.2735 -1.8653 -1.2287 -0.4823 -2.0715 -6.2225 -4.0228 -1.8063 -0.5807 -4.4921 0.2415 -4.2212 -3.1731 -7.0977 -8.7565 -7.0482 -5.2881 -5.9616 -5.9252 -9.7934
-0.8767 0.3954 0.5745 -0.2861 0.1186 -2.0551 -2.1281 -2.1187 -0.6326 -0.0854 -1.1719 -4.5410 -1.3538 -0.3783 -1.7931 -5.3121 -3.3217 -2.1853 -0.8118 -3.1125 0.0188 -4.0957 -3.3494 -7.4518 -8.0494 -6.5863 -6.0256 -7.8547 -8.8753 -9.0720
-0.3713 0.8733 2.3816 -0.4245 0.4895 -0.7475 -1.4496 -2.1818 -0.6115 0.3208 -0.1187 -5.0914 -1.6602 -0.3856 -1.1810 -5.0467 -2.9818 -2.8374 -0.5611 -1.3977 -0.2752 -4.5967 -3.5698 -7.1300 -7.2592 -6.0510 -7.4280 -9.4862 -10.8333 -9.0790
-0.0093 0.0313 0.8014 0.7645 0.2688 0.0358 -1.1754 -1.5038 -0.4865 0.3165 0.0516 -2.8847 -1.3885 -0.3661 -0.7272 -4.1740 -2.7953 -2.8019 -0.2883 -0.5546 -0.4050 -4.5329 -3.6661 -6.4691 -6.4780 -4.3927 -6.3412 -8.0582 -10.3823 -8.9126
0.3477 -1.1963 -2.0761 2.1578 0.5105 1.1309 -0.9474 -0.5263 -0.2805 0.1115 -0.5561 -1.2816 -1.0952 -0.3052 -0.9613 -2.3974 -2.8350 -2.5022 -0.5644 -0.5305 -0.3365 -4.0806 -3.7301 -5.6927 -5.4980 -2.6048 -3.8438 -4.9827 -7.7000 -7.9240
0.3821 -2.4225 -2.8275 1.8286 0.9247 2.9732 -0.6893 -0.1331 -0.3592 -0.1180 -0.9274 -1.0798 -1.3714 -0.5676 -1.6128 -1.0772 -3.0753 -2.6358 -1.0853 -0.5681 -0.1471 -4.1182 -3.9017 -5.1053 -4.6422 -2.4187 -3.1332 -3.9958 -5.3009 -6.2060
0.5819 -1.9633 -0.4739 0.4387 0.9283 3.4201 0.0504 -0.2945 -0.7329 -0.1018 -0.2336 -1.1618 -1.9078 -1.1337 -1.7915 -0.4565 -3.1935 -2.9756 -1.4554 -0.2402 -0.0922 -4.4289 -3.8042 -4.6015 -3.8226 -3.1930 -4.1094 -4.7571 -3.9995 -3.9430
1.5260 0.8193 2.8971 -0.1253 1.2014 1.8928 1.4095 -0.3725 -0.8473 0.2486 1.0556 -1.3741 -2.1341 -1.4090 -1.3611 0.4201 -2.8229 -2.9879 -1.6871 0.2293 -0.2991 -4.1469 -3.3342 -3.5430 -2.3569 -2.7695 -4.6611 -4.1287 -1.9773 -1.7666
1.7153 3.2488 4.2809 0.4014 1.6023 0.6240 2.3942 0.0410 -0.4685 0.4329 1.8445 -0.7107 -1.7320 -1.1336 -0.9167 1.2538 -2.0042 -2.6393 -1.6652 0.5618 -0.4675 -3.2902 -3.2445 -1.9308 -0.2565 -1.2615 -4.7022 -2.5279 0.6465 -0.1885
0.2965 3.8337 2.8932 1.2807 1.0076 0.4602 2.4771 1.0956 0.1591 0.2348 1.8431 2.1085 -0.5488 -0.5651 -0.5571 1.5091 -0.7126 -1.9668 -1.1363 1.0954 -0.3771 -2.0682 -3.2399 -0.4232 1.8726 0.3695 -4.3076 -1.4962 2.4970 1.4720
-0.3864 3.9233 0.9802 1.6805 -0.1468 0.4176 2.4281 2.4073 0.7401 0.1068 1.4872 4.9192 1.0834 0.1315 -0.0862 2.1632 1.2585 -0.7458 -0.1597 2.2838 -0.2981 -0.1115 -1.7939 0.9417 3.8089 2.8304 -1.8941 0.7678 4.6960 3.8289
0.8862 3.7381 0.9236 1.1764 -0.4469 0.3515 2.7571 2.9170 0.9094 0.1544 1.2221 4.5980 2.1645 0.7700 0.2609 3.7655 2.8452 0.5683 0.7747 3.6738 -0.4614 1.8531 0.4354 2.1185 5.1168 5.2822 1.4829 3.9866 7.0039 5.2248
1.7077 3.2102 3.0920 1.1412 0.1719 0.4182 3.3151 2.3390 0.5860 0.0948 1.4611 2.6990 2.2119 0.9475 0.3305 5.0263 2.6407 0.8855 1.0049 4.2677 -0.6549 2.2749 0.9831 2.0960 4.7959 5.6804 2.4039 4.2136 6.0150 3.5393
1.1486 3.7466 5.9476 2.5881 0.7605 0.2141 3.9615 1.9383 0.2707 0.1215 2.3361 2.9895 2.0812 0.7560 0.4213 4.8508 1.9221 0.4746 0.5554 3.9727 -0.6431 1.8454 0.2031 0.9172 3.1893 5.6582 1.9443 2.1077 2.3767 0.6685
1.5287 4.5983 6.5752 3.2534 0.7262 -0.0316 4.1857 2.6343 0.2798 0.4626 3.1189 5.4049 2.5944 0.8282 0.7138 3.9488 2.9518 0.9532 0.4799 3.9299 -0.4975 2.7456 0.5314 0.6126 2.4169 7.6959 3.9785 2.2506 0.7557 1.0033
2.7135 3.3270 3.4891 1.6448 0.0786 0.5390 3.4154 3.7268 0.3937 0.7533 2.9933 6.9531 3.3006 1.2345 1.1122 3.3332 4.8393 2.4937 1.4249 5.0561 -0.3756 4.7472 1.9078 2.1279 3.4593 10.0006 7.4529 4.7810 2.1449 4.7405
2.0360 0.7670 -0.1661 0.4923 -0.5182 2.0225 2.2509 4.1275 0.4057 0.8182 2.6061 5.9604 3.3154 1.4215 1.5724 2.7683 5.0914 3.4439 2.6103 6.6551 -0.3401 5.6905 2.6825 4.0792 5.1940 9.9983 8.7585 6.9787 4.8440 8.1815
0.8097 -0.4098 0.1176 1.5333 -0.1980 3.1452 1.9043 3.4643 0.2130 0.9699 3.1607 3.4252 2.5797 1.2737 2.0061 2.1804 3.7715 3.1775 3.1713 7.2602 -0.4137 5.2220 2.9342 5.4135 6.7693 8.3739 8.2337 8.5316 8.4751 9.8162
1.9018 -0.1458 3.5349 2.2215 0.6503 2.5371 2.2780 2.1534 -0.1310 1.0719 3.9043 1.7840 1.9401 1.2045 2.1225 2.2957 2.8349 2.8436 3.2610 6.4567 -0.5279 4.8253 3.3147 6.1662 7.8348 6.9120 7.6284 9.3491 11.4729 9.8517
3.0520 0.0719 5.3169 0.9057 0.5659 0.7535 2.0496 1.0363 -0.2002 0.6292 2.8924 1.8989 2.0530 1.3892 1.6618 2.6887 2.9823 3.0492 3.1450 4.8498 -0.4866 5.0235 3.3088 5.8720 7.2932 6.7517 6.7099 8.2686 10.9173 7.5455
1.9748 0.1626 4.5221 -0.4657 -0.5664 -0.4199 1.1168 0.5767 0.1183 -0.0925 0.3507 2.2313 2.4508 1.6067 0.7037 2.7144 3.5525 3.1235 2.6988 3.2344 -0.2641 5.2317 2.8182 4.1561 5.0242 8.7119 6.3874 6.6289 7.1219 3.9237
1.4678 0.9516 4.2104 -0.6060 -1.2335 -0.5277 0.9975 0.7090 0.2575 -0.2802 -1.2318 2.1711 2.3062 1.6591 -0.1664 3.2501 3.9627 2.6966 2.0865 2.4114 -0.1607 5.1225 2.5870 1.9557 2.7759 11.2761 7.8431 6.7923 3.3949 1.2717
2.5229 2.2140 4.6563 -0.4921 -0.8414 -0.4307 1.8789 1.1206 -0.0091 0.1339 -0.6380 2.5037 1.6138 1.5414 -0.2285 3.9140 3.5807 2.0015 1.6410 2.3814 -0.3062 4.2320 2.2225 0.5211 1.5157 10.4547 7.8239 7.1025 1.4942 -0.1018
2.2058 2.8869 3.4632 -0.2983 -0.2362 -0.6338 2.1004 1.1614 -0.2569 0.4271 0.6227 2.4503 0.8979 1.3018 0.4770 2.8269 2.0119 1.1200 1.3468 2.2076 -0.3693 2.2460 0.9934 0.5433 0.9530 5.8730 3.5983 5.3689 1.7061 0.6599
0.3228 2.8490 0.6436 0.4230 0.0981 -0.9388 1.2228 0.6709 -0.3651 0.3021 0.8601 1.2347 0.4757 1.0109 1.0856 0.7189 0.3477 0.3328 1.2606 1.7912 -0.1677 0.4356 0.0809 2.0987 1.3135 2.5409 -0.4186 4.3796 5.2940 4.5497
-1.0053 2.6302 -1.9145 0.7338 0.2693 -0.7770 0.4002 0.4487 -0.5717 0.2168 0.2477 0.7715 0.3222 0.7702 1.0559 -0.1968 -0.2403 0.0639 1.4907 1.9842 0.0119 0.0441 0.4352 3.7816 2.0818 2.7098 -0.1355 5.7325 10.6031 7.2087
-1.1782 1.7554 -2.8503 0.4429 0.2255 0.1758 0.0877 0.5815 -0.7049 0.4298 -0.3261 1.9519 0.1375 0.5792 0.6799 0.0125 -0.5891 -0.0241 1.4389 2.5028 0.0187 0.0219 0.2690 3.1420 1.0518 3.2342 1.0267 4.8463 10.6361 3.5903
0.0922 0.0369 -1.2303 0.9430 0.0930 1.1481 -0.0085 0.1489 -0.4879 0.5972 -0.6031 1.9452 -0.3235 0.3339 0.2669 0.1227 -1.5821 -0.5156 0.4484 2.1840 -0.0022 -0.7875 -1.7249 -0.2690 -2.2069 2.8937 -0.0163 0.1742 2.7257 -2.5698
1.9400 -0.7813 1.8281 1.6167 0.0808 1.0456 0.0340 -0.7119 -0.2799 0.4666 -0.6116 -0.5389 -0.9275 0.0087 -0.2640 -0.3395 -2.2135 -1.2301 -0.9678 1.1869 -0.0985 -1.5967 -3.7099 -3.7402 -4.9014 3.0928 -1.0959 -3.1992 -5.8298 -4.3642
1.5150 0.1347 3.1004 0.5324 -0.1707 0.1864 0.0128 -1.0131 -0.4562 0.1843 -0.5219 -2.2374 -1.3000 -0.2187 -0.7765 -1.2269 -1.7457 -1.5510 -1.6599 0.6239 -0.3197 -1.7262 -3.8238 -4.6258 -5.3271 2.9982 -1.4718 -3.5798 -8.5293 -3.0731
-0.6788 0.7419 2.0566 -1.1589 -0.7682 -0.3016 -0.3225 -0.9145 -0.6524 -0.0943 -0.7375 -1.2087 -1.1065 -0.0901 -0.7835 -1.7666 -0.9524 -1.0765 -1.1032 0.5764 -0.3283 -1.4170 -2.3977 -3.0528 -4.7493 2.1288 -2.1536 -2.9888 -6.1438 -2.9917
-0.1321 -0.2269 1.1938 -1.0259 -0.8323 -0.2395 -0.6380 -1.0982 -0.6174 -0.1239 -0.9712 0.0641 -0.4596 0.3070 -0.1770 -1.3311 -0.5236 -0.2010 0.0936 0.5235 0.0102 -0.6811 -0.6134 -0.7517 -3.8155 2.1326 -1.4330 -0.3655 -1.0367 -2.0437
3.4850 -1.3522 0.6360 0.2280 -0.0227 0.1637 -0.6298 -1.2211 -0.8040 0.4313 -0.3641 -0.0425 -0.0533 0.4529 0.4763 -0.7887 -0.5808 -0.1455 0.5637 0.7390 0.1998 -0.2300 0.0947 0.6566 -2.2400 2.2509 0.5110 2.9834 3.3914 0.8528
4.6884 -1.6028 -1.5900 0.4317 0.5303 0.9584 -0.8138 -0.7378 -1.3087 1.1563 0.7124 -0.3078 -0.2701 0.1366 0.6404 -1.7571 -0.9868 -1.1637 -0.2807 1.3095 -0.0908 -1.1171 -0.9389 0.3648 -1.6011 0.7349 -0.0159 1.9003 2.8975 0.6323
0.8733 -1.0221 -4.7819 -0.3114 0.1521 1.3709 -1.3617 0.1838 -1.4901 1.1790 1.0628 -0.6430 -0.5946 -0.0945 0.4764 -3.8741 -1.1862 -1.7848 -1.3096 1.4259 -0.4582 -2.1946 -2.0993 -0.7157 -2.7865 -0.6545 -2.3511 -1.7302 -0.3546 -2.6205
-3.8873 0.7674 -5.9476 -0.2282 -0.2086 0.6287 -1.1618 1.1546 -1.1315 0.6565 0.8408 -1.7975 -0.5509 0.1721 0.3027 -4.3966 -0.9555 -1.3504 -1.4285 1.0086 -0.4505 -1.7999 -2.0747 -1.2621 -3.6068 0.0245 -2.5044 -2.2886 -1.8041 -3.2812
-4.6410 2.9529 -3.3881 1.2014 0.2083 -0.2705 0.2415 1.5322 -0.7242 0.4301 0.8729 -2.3496 -0.3439 0.4490 -0.0312 -2.2116 -0.6554 -1.0122 -1.1790 0.5993 -0.2044 -0.9452 -2.2737 -1.8871 -3.1083 1.4237 -1.3666 -2.2618 -3.9398 -2.6200
-0.9794 3.4117 1.6438 2.4616 0.8225 -0.0866 1.4628 0.7369 -0.5093 0.6463 1.0042 -0.7796 -0.1883 0.3310 -0.3284 0.2560 -0.2392 -1.1531 -1.1319 0.0118 -0.0682 -0.9421 -3.2239 -2.9410 -2.6223 1.7600 -1.6487 -4.7503 -8.0669 -4.2248
3.0209 2.2186 5.2310 1.9160 0.9278 0.6258 1.4643 -0.4608 -0.4669 0.9333 0.9184 1.7404 -0.0458 0.2837 0.1076 0.9299 0.3457 -0.8403 -0.6262 -0.2489 -0.1255 -0.8661 -2.7929 -2.4273 -1.5429 1.2060 -1.8436 -5.0337 -7.9590 -4.5305
3.5159 1.2523 4.2891 -0.1268 0.5356 0.7282 0.8148 -0.7479 -0.8139 1.0103 0.7426 3.1165 -0.0360 0.5450 0.8810 0.5845 0.4395 -0.0944 0.5328 1.0990 -0.2783 -0.1395 -0.7588 0.1036 1.1504 0.9242 -0.5204 -1.1520 -2.3247 -1.3827
1.5650 0.8266 0.8546 -1.7482 0.0415 0.4062 0.4049 -0.2263 -1.3476 0.7926 0.4882 2.8963 -0.1374 0.7277 0.8167 0.8359 0.0835 0.2954 1.5622 3.1334 -0.3616 0.3701 0.5431 2.1614 3.5006 1.2538 0.5921 1.8546 2.3347 0.6088
0.4863 0.6479 -0.6468 -1.9627 -0.1018 0.4452 0.6394 0.2892 -1.3409 0.5760 0.3622 2.2294 0.1773 0.9481 0.2461 2.1951 0.4514 0.5968 2.3335 3.8744 -0.2272 0.8426 1.0479 3.1549 4.3245 1.4312 1.0632 2.5876 4.3284 0.1743
0.6432 1.3218 -0.2868 -1.7374 0.2199 0.4234 1.1569 0.5806 -0.8456 0.6602 0.5530 1.8899 1.0866 1.5227 0.4248 3.5797 1.5089 1.2768 3.0740 3.7272 -0.0248 1.9279 2.2655 4.7905 5.4759 1.3785 2.1388 4.0988 6.8034 1.7161
0.7605 2.1435 -1.2749 -1.9458 0.5364 -0.4170 0.8831 0.4471 -0.6452 0.7817 0.4033 1.1832 1.7105 1.8864 0.9746 3.2625 1.6470 1.6321 3.1577 3.4660 -0.0693 2.3884 3.0181 6.1223 6.7704 1.4765 2.6795 5.3639 8.2500 4.5520
0.4364 1.5728 -3.2412 -2.0365 0.4577 -1.1822 -0.3692 -0.1982 -0.8480 0.6712 -0.3901 -0.0723 1.2659 1.4286 0.6657 1.1027 0.4936 1.0667 2.0722 2.1788 -0.2667 1.0802 1.6379 4.4995 5.0755 0.7220 0.9745 3.2754 4.9677 2.4126
-0.6105 0.2919 -3.9003 -1.3454 0.3074 -0.6674 -1.4318 -0.6284 -0.9704 0.5956 -0.8379 -0.4404 0.2972 0.5276 -0.1164 -1.4072 -0.7718 0.0663 0.4287 0.3145 -0.1647 -0.7632 -0.4596 0.8662 0.4862 -1.2620 -1.3721 -0.3983 -1.4113 -4.0433
-1.6384 -0.4926 -3.9497 -0.5114 0.4650 0.4980 -1.7870 -0.5266 -0.9711 0.7319 -0.5588 0.2314 -0.3596 -0.1196 -0.3080 -3.1281 -1.8504 -0.8707 -0.7335 -0.1330 0.3642 -1.8480 -1.5868 -1.6223 -3.0445 -2.5920 -2.3271 -2.1495 -6.1703 -7.1988
-0.9598 -1.1307 -4.2220 -0.6460 0.5926 1.0709 -1.9036 -0.6615 -1.1176 0.8656 -0.4928 -0.1081 -0.8073 -0.2279 -0.0954 -3.4301 -2.9359 -1.5067 -0.7452 0.7607 0.8833 -2.4038 -1.9971 -2.0659 -3.2803 -2.4771 -2.5446 -1.8321 -6.7368 -4.9946
0.3781 -1.1757 -3.9053 -1.3058 0.2464 0.7049 -1.7842 -1.2256 -1.3179 0.8679 -1.0854 -1.9923 -1.1637 0.1565 0.0464 -1.9133 -3.2023 -1.3764 0.2424 1.5482 0.9179 -2.4334 -1.3862 -0.7895 -1.0163 -2.1797 -2.2707 0.1882 -2.6469 -1.1926
0.0120 0.0778 -3.7445 -1.2830 -0.2874 -0.4544 -1.4035 -1.5576 -1.2961 0.7459 -1.8986 -3.4725 -1.1314 0.7433 0.2164 0.2591 -2.6106 -0.5876 1.2716 1.8170 0.5842 -1.7600 0.6557 1.4763 1.4865 -2.0703 -0.5419 3.7662 3.5513 1.7346
-0.4934 0.7270 -3.9439 -1.2177 -0.4617 -1.6579 -1.4024 -1.8001 -1.2063 0.5776 -2.3912 -3.7408 -1.2895 1.0494 0.1763 0.6816 -2.7452 -0.2212 1.5757 1.1712 0.4173 -1.4712 1.9197 1.8887 1.2187 -1.9065 1.1151 5.5524 5.7183 1.7794
0.9906 -0.6764 -2.1924 -2.0356 -0.3857 -1.8266 -2.0246 -2.5540 -1.4528 0.5314 -2.1848 -3.9686 -2.3093 0.7065 -0.4053 -1.5333 -3.8117 -0.8648 1.0084 -0.7563 0.5211 -2.3885 0.4976 -1.1373 -2.3162 -1.9821 0.5006 3.0953 1.3709 -1.7839
1.6619 -1.8639 0.9712 -2.4016 -0.5897 -1.0877 -2.6936 -3.2291 -1.9169 0.5049 -1.7497 -4.4886 -3.0085 -0.0800 -1.1205 -4.6086 -4.1666 -1.8052 -0.4791 -2.8375 0.4915 -3.4151 -1.7138 -4.7578 -5.7909 -1.6387 -1.0148 -0.4714 -4.4801 -5.1997
-0.3469 -0.9341 2.2276 -1.5121 -1.0109 -0.3673 -2.7044 -2.9143 -2.1358 0.3038 -1.9360 -4.2822 -2.2380 -0.5219 -1.5133 -5.7914 -3.6094 -2.2446 -2.3506 -3.9789 0.2400 -3.5076 -2.3554 -6.1792 -6.8014 -0.4555 -1.6176 -1.8141 -6.8502 -5.4084
-1.1032 0.3947 1.6073 -0.6873 -1.0104 0.0875 -1.8092 -2.0630 -2.1391 0.1720 -2.2282 -2.7602 -1.1676 -0.2006 -1.6374 -4.0783 -3.3308 -2.2234 -3.2653 -4.4560 0.0670 -3.3029 -1.9171 -5.7325 -6.1383 -0.4357 -2.1695 -1.3458 -5.3047 -4.2821
1.0864 0.4170 0.5127 -0.2459 -0.3934 0.2403 -0.9850 -1.5061 -2.2123 0.2931 -1.7429 -0.4498 -0.9432 0.2389 -1.6436 -2.1990 -3.1200 -2.1031 -2.9397 -4.5891 0.0610 -3.5110 -1.8061 -4.6919 -5.2994 -2.6775 -3.2301 -0.8152 -2.2679 -4.1121
1.9569 -0.0777 -1.8098 0.1110 0.2624 -0.0180 -1.7107 -1.2136 -2.3023 0.3679 -1.2447 1.3548 -0.9923 0.0933 -1.6318 -3.8060 -2.3699 -2.0929 -2.5788 -4.5772 0.1639 -3.8281 -2.4060 -4.2907 -5.1849 -4.8254 -4.4076 -2.2068 -1.7088 -4.6307
0.2681 -0.3091 -4.4777 -0.4942 0.2859 -0.2620 -3.1673 -0.9378 -2.3103 0.2979 -1.3734 1.7357 -1.0377 -0.2480 -1.4914 -7.0121 -2.0368 -2.1987 -2.5572 -4.6802 0.3350 -3.8277 -3.1217 -4.7011 -5.2404 -4.9876 -5.9105 -5.2856 -3.8939 -4.5836
-0.1351 -0.3755 -5.2072 -1.3449 -0.2894 -0.3955 -2.7679 -0.4332 -2.2046 0.3427 -1.0941 1.0427 -1.2875 -0.1282 -0.9098 -6.1081 -2.5202 -2.0894 -2.1316 -4.0629 0.2991 -3.2627 -2.9387 -4.1539 -3.7118 -3.6925 -6.7166 -6.1862 -3.9117 -3.0545
0.9329 0.0730 -4.7075 -0.5647 -0.8576 -1.0184 -0.6699 0.3697 -1.8482 0.4104 -0.3526 -0.1603 -1.1140 0.2589 -0.1537 -1.2167 -2.4734 -1.4253 -1.3159 -2.0393 -0.0760 -1.9393 -1.6596 -2.0341 -0.9044 -1.3156 -4.8928 -3.4106 -0.8098 -0.8120
0.2804 0.8897 -3.8005 0.6256 -1.1877 -1.6457 0.4585 0.6591 -1.3749 0.2424 -0.5608 -1.3154 -0.2767 0.5904 0.0909 2.1030 -1.3823 -0.4517 -0.5771 -0.0377 -0.3448 -0.2713 -0.1931 -0.0415 0.9308 1.5782 -1.3397 -0.1041 1.4761 0.3315
-0.6597 0.8522 -1.1365 -0.0452 -1.3501 -0.8577 0.2314 0.0229 -1.1614 0.1314 -1.1970 -0.9613 0.3567 1.0282 -0.0683 2.1360 -0.2605 0.2145 0.0701 0.4659 -0.2375 0.7750 0.5555 0.8734 1.2145 3.0107 0.9088 1.4463 2.3233 0.4005
1.1603 -0.4012 1.8984 -1.7093 -1.1170 0.7636 -0.0320 -0.5795 -1.2330 0.4078 -0.6034 0.7944 0.3338 1.3897 0.0073 0.7758 0.1471 0.3049 0.2383 -0.1064 -0.1292 0.8102 0.2830 0.8494 0.7038 2.2660 0.9799 1.3070 2.7249 0.6164
3.1191 -1.4003 2.1516 -2.2228 -0.6041 0.9812 -0.4758 -0.6198 -1.2469 0.7597 0.4682 0.9702 0.0788 1.2543 0.3564 -1.2705 -0.0326 0.1419 -0.3871 -0.7956 -0.2043 0.5792 -0.3634 0.1396 -0.0704 0.9692 0.6831 0.4961 2.1476 1.0408
1.7142 -0.3336 0.9587 -0.9889 -0.3410 0.0898 -0.8160 -0.3297 -0.9507 0.9172 0.5741 -0.9925 0.1207 0.9266 0.5660 -2.2841 -0.0503 0.1100 -0.9369 -0.8668 -0.1831 0.7706 -0.3234 -0.2254 -0.1130 0.1930 0.9650 0.7761 2.0308 1.2350
-0.9256 2.2049 1.1796 1.1285 -0.1389 0.7983 0.2659 0.5031 -0.5478 1.1022 0.4891 -1.5546 0.4146 0.7490 0.4451 -0.3673 0.4602 -0.0040 -0.8413 0.0831 -0.0552 0.7571 -0.0473 0.1583 0.8811 -0.4949 0.5158 1.6799 3.0664 1.0307
-1.4106 3.1681 1.7707 2.4725 0.4124 3.0747 1.7810 1.4709 -0.5010 1.3461 1.1758 0.3628 0.2818 0.4125 0.2510 1.8803 0.5354 -0.5253 -0.6568 1.4485 -0.0754 -0.1700 -0.8279 0.2767 1.6556 -1.1115 -1.2575 0.5938 2.5897 0.2603
-0.1916 1.7858 1.5672 2.0107 0.7390 3.6599 1.8317 1.3239 -0.8339 1.2672 1.6601 1.7069 -0.3274 -0.0444 0.3474 1.7247 -0.4022 -1.0811 -0.6156 2.2511 -0.1959 -1.2868 -2.3436 -0.2822 1.4812 -0.9963 -3.2624 -2.5472 -0.1174 -1.0451
0.9636 0.8787 2.0609 0.5754 0.3267 1.6309 1.3683 0.3026 -1.1393 0.7031 0.9760 0.9165 -0.5971 -0.2395 0.4281 1.5016 -1.2198 -1.3562 -0.8700 1.9699 -0.2197 -1.7601 -3.5287 -1.4472 0.4525 -0.3200 -5.0473 -5.6981 -3.7857 -2.6681
1.6502 1.3079 2.8608 -0.4410 -0.2113 -0.2424 1.6942 -0.1537 -1.2487 0.0646 -0.0304 -0.4869 -0.4980 -0.3227 0.0656 2.8805 -0.9961 -1.5187 -1.7030 0.9652 -0.1644 -1.5658 -3.7259 -2.6184 -0.9753 0.2650 -5.5769 -6.5051 -6.7263 -3.4342
1.4996 0.8757 1.2223 -0.9041 -0.4535 -0.5677 1.3825 -0.0355 -1.2589 -0.1793 -0.4949 -0.9767 -0.5889 -0.2778 -0.1057 3.0873 -0.1708 -1.1933 -1.8960 0.9744 -0.1070 -0.5361 -2.0671 -1.4263 -0.8381 0.9660 -2.6594 -2.4038 -4.2801 -1.3581
0.5204 -0.4798 -2.3960 -1.2708 -0.7831 -0.8195 -0.3631 -0.3006 -1.1340 -0.0909 -0.9814 -0.5666 -0.6814 0.2481 0.3609 1.2677 0.4260 -0.2008 -0.4066 2.6897 -0.0500 0.7856 0.5899 2.2846 1.8443 1.7492 1.7266 4.1083 3.9332 2.7593
0.7362 -0.9377 -4.2787 -1.0282 -1.0824 -1.2930 -1.3956 -0.7407 -0.8099 0.1124 -1.4160 -0.0559 -0.5941 0.7691 0.6001 0.4770 0.2536 0.2289 0.9909 3.5587 -0.0692 0.7387 1.2177 4.2146 3.9883 1.4955 2.2443 5.5660 8.4985 4.8989
3.0517 -1.0199 -3.2768 0.2577 -0.8231 -0.7690 -0.6710 -0.6938 -0.5257 0.4203 -0.6262 0.3466 -0.6896 0.5853 0.3084 1.0899 -0.4981 -0.5219 0.6917 1.9550 -0.2258 -0.6720 -0.6790 2.4006 2.7027 0.2478 -1.1404 0.7887 4.0568 3.1473
4.3901 -1.8315 -1.5240 1.2259 -0.1889 0.4526 -0.0812 -0.5384 -0.6249 0.6754 0.8589 0.6996 -0.9446 0.0679 0.2650 0.1992 -1.1419 -1.2481 -0.0634 0.2979 -0.3231 -1.7116 -2.3962 -0.1645 -0.5507 -0.5752 -3.8478 -3.8054 -2.8207 -0.6555
2.2456 -1.9117 -0.3240 0.8303 0.3770 1.5272 -0.4620 -0.5857 -1.0118 0.7672 1.3855 0.2489 -0.9521 -0.1657 0.4599 -2.1706 -1.5127 -1.2836 -0.1557 0.3638 -0.1635 -2.1322 -2.8134 -1.5979 -3.1475 -1.3115 -4.8617 -4.9863 -5.7214 -4.0849
-0.8852 -0.2632 -0.0676 0.4001 0.8232 2.5493 -0.5005 -0.1651 -1.1948 0.9389 1.1402 -0.9164 -0.5062 -0.0358 0.4286 -3.1370 -1.7043 -1.1161 -0.1917 0.7127 0.0639 -2.6121 -2.6350 -2.2353 -3.9148 -3.3728 -5.6917 -3.9611 -4.2219 -4.9476
-0.9017 0.9144 -1.6215 0.8852 1.1172 2.8763 -0.0426 0.7264 -1.0212 1.2015 1.0139 -1.1010 0.2060 0.5240 0.4876 -1.9868 -1.5516 -0.6696 -0.2594 0.6159 0.1064 -2.5198 -1.7783 -1.4485 -2.4570 -5.3894 -5.2343 -1.0289 0.9291 -2.3183
1.7911 0.1962 -4.1536 1.2358 1.0723 1.6366 -0.0947 1.0837 -0.9223 1.1795 0.5848 -0.0302 0.6179 1.2985 0.6577 -0.4560 -1.3042 0.1267 0.1600 0.6100 0.0575 -1.6058 -0.7311 0.0765 -0.6292 -4.7567 -3.0770 1.8708 5.9463 0.2088
2.1577 0.2470 -5.0838 1.0173 0.6171 -0.1856 -0.3873 0.9887 -1.1225 0.7510 -0.4931 0.7183 0.5646 1.3953 0.1588 -0.1398 -1.2340 0.3952 0.3145 -0.4017 0.0968 -1.2728 -1.2147 -1.0035 -2.0341 -2.4942 -2.5872 0.1163 3.7612 -2.1158
-1.7523 2.9053 -3.6370 0.8307 0.0446 -1.0882 -0.3715 1.2167 -1.2620 0.2316 -1.5048 0.6850 0.5198 0.5935 -0.9322 -1.6138 -0.8083 -0.0203 -0.7258 -2.8783 0.2153 -1.9038 -3.0768 -4.8127 -6.1600 -1.6206 -4.9190 -5.5376 -4.9743 -6.7716
-4.3574 4.4309 -1.7904 0.3320 -0.2102 -1.0981 -0.7414 1.1580 -1.1808 -0.0012 -1.8040 0.5004 0.5014 0.0641 -1.3339 -3.7196 0.0102 0.0079 -1.8641 -3.8331 0.3233 -1.8948 -3.7599 -6.2700 -7.5711 -1.9272 -6.0092 -7.6339 -9.2403 -6.5658
-1.2899 1.6080 -1.6480 -0.7950 -0.2046 -0.9858 -1.6001 0.2467 -1.1240 0.0853 -1.4073 0.1644 0.1969 0.4203 -0.6122 -4.0731 0.1795 0.6989 -1.7378 -1.5411 0.3572 -0.8220 -2.2732 -3.1770 -4.2339 -1.5609 -4.1662 -3.8187 -3.7978 -1.5401
2.6183 -1.6015 -2.3308 -1.2670 -0.2934 -0.6926 -1.5872 -0.3207 -1.1069 0.2054 -0.7246 -0.3699 -0.0879 0.6950 0.0196 -2.2888 -0.3979 0.8796 -1.3824 0.8689 0.3132 -0.3178 -0.8792 -0.1840 -0.8175 -0.9246 -3.2131 -0.9669 2.1285 1.4414
2.0176 -0.9632 -1.2816 -0.3629 -0.4343 0.2496 -0.4424 0.1827 -1.0952 0.2087 -0.2683 -0.5112 0.0013 0.4095 -0.2586 -0.6670 -0.4646 0.2923 -2.0133 0.8584 0.2405 -0.6508 -1.1627 -0.6278 -0.7386 -0.0107 -4.0389 -2.4195 0.8455 0.6675
0.3776 0.3140 0.0710 0.4173 -0.3980 1.2082 0.1628 0.7985 -1.2022 0.1468 -0.2846 0.1186 0.3379 0.3934 -0.6856 -0.5949 0.2912 0.0750 -2.4311 0.0783 0.1737 -0.3101 -1.5822 -1.7275 -1.8354 2.5906 -2.5878 -2.6710 -1.7167 0.0823
1.6257 -1.1093 -1.9484 0.1769 -0.1833 1.0168 -0.5232 0.9851 -1.1556 0.0662 -0.5499 1.0243 0.6782 0.8086 -0.4275 -1.1827 0.7596 0.5110 -1.6166 0.0811 0.1160 0.5822 -0.8699 -0.9802 -1.8033 4.9644 1.1012 0.7566 1.0779 0.4856
2.1924 -1.7532 -5.4037 -0.1197 0.0811 -0.2326 -1.2248 1.1146 -0.7778 0.0840 -0.7421 1.3382 0.6595 0.8908 0.3111 -1.4972 0.5520 0.7146 -0.7674 0.4739 0.0611 0.7961 0.0366 0.4931 -0.8301 4.2192 2.8001 3.6489 6.0578 0.6514
0.0117 0.3802 -5.8195 -0.3363 0.2668 -1.1515 -1.0564 1.1819 -0.6802 0.2527 -0.7090 0.9553 0.1051 0.5767 0.8497 -1.4418 0.3531 0.4703 -0.8575 1.1887 0.0051 0.6191 0.2871 1.5750 0.5904 2.5459 2.1434 3.9758 8.2745 1.5624
-0.6030 0.8054 -3.8726 -0.5234 0.4147 -0.1818 -0.4562 0.9774 -1.2134 0.4278 0.0203 0.8172 -0.6678 0.1793 0.8227 -1.1325 0.0003 -0.0841 -1.3558 1.9333 -0.0501 0.1386 -0.4212 1.7995 1.2018 2.2748 0.6924 2.2299 6.3346 2.4641
1.1503 -1.4910 -1.9253 0.8366 0.7281 2.5521 0.3421 0.7381 -1.8009 0.6523 1.6703 1.5446 -1.3428 -0.4174 0.6547 -0.8113 -1.0405 -1.2518 -1.7828 1.7380 -0.1081 -1.4812 -2.2576 0.5454 -0.3230 1.0161 -2.4508 -1.9764 0.8359 0.5689
1.2217 -1.1969 -0.1694 3.4023 1.1698 4.2182 1.3660 0.9200 -2.0021 1.0856 2.9382 2.2626 -1.4229 -0.7836 1.0736 -0.4246 -1.5813 -2.1712 -1.9938 1.1807 -0.1422 -2.8321 -3.6924 -1.0300 -2.0580 -1.2407 -5.6646 -5.7125 -3.8109 -2.4597
-0.0318 2.2491 0.4810 4.2733 1.3745 2.8516 2.1481 1.6576 -1.8734 1.4195 2.7406 1.7979 -0.4345 -0.1863 1.9026 0.6253 -0.4336 -1.3691 -1.5573 1.7830 -0.1162 -1.6925 -2.8034 -0.7489 -0.9278 -0.3522 -4.5571 -4.3915 -2.7269 -1.9080
-0.0423 3.7817 -0.1408 3.0375 1.1037 0.8659 2.5554 2.3840 -1.4597 1.2289 2.2226 0.7458 0.6090 0.6637 2.1543 2.3062 0.9097 0.1247 -0.7319 3.0002 -0.1069 0.3677 -0.7632 0.9453 1.9775 2.8102 -0.8033 -0.4395 1.3228 1.5154
-0.4343 2.8474 0.4130 1.9248 0.5957 1.2298 2.9290 2.4806 -0.9558 0.8303 2.4316 0.7416 0.4626 0.5846 1.5325 3.3521 0.7897 0.3558 -0.7407 3.1382 -0.2028 0.6483 0.0444 1.7812 3.1051 3.3523 -0.1717 0.5103 2.4422 2.5912
-1.5614 2.2117 2.0562 1.4719 0.2095 2.6607 2.8278 2.1680 -0.6061 0.7851 2.4974 1.8253 0.1886 0.1865 0.9358 2.8186 0.4901 0.3113 -1.5725 2.5427 -0.2897 0.4804 0.2481 1.8767 2.5279 2.3456 -1.3103 0.2899 1.9909 1.6120
-0.2285 1.0280 1.6209 0.7468 -0.2477 2.2509 1.4676 1.7225 -0.3356 0.7577 1.5881 2.6060 1.0432 0.6384 1.0354 1.2547 1.5860 1.6419 -1.6074 2.5316 -0.2136 2.1102 1.5896 3.0429 3.0743 3.9557 0.7870 3.3392 4.2041 3.8732
2.4669 -1.2584 -0.6073 -0.1532 -1.0753 0.0655 -0.4460 0.9262 -0.1924 0.1854 0.1169 2.6617 1.9385 1.4890 1.3784 -0.0332 2.9661 3.1178 -0.4490 2.7365 -0.0345 4.0680 3.2908 4.6876 4.6300 6.3908 3.7328 6.6488 7.2583 8.2168
2.3751 -1.1298 -1.1669 -0.6083 -1.6011 -1.8372 -0.8845 0.3337 -0.2529 -0.3943 -1.0094 2.5905 1.9558 1.8445 1.4270 0.4088 3.1857 3.2678 0.5282 2.5884 0.1007 4.3049 3.9259 4.7615 4.8133 5.9212 3.1039 5.8639 7.6985 8.1464
0.6941 2.4014 0.4821 -0.4562 -1.1137 -2.7519 0.7926 0.7920 -0.1341 -0.3262 -1.2097 2.2967 1.8882 1.8622 1.1359 3.0174 2.7638 2.8379 0.5179 2.6869 0.1426 3.5129 3.6106 3.2391 3.5095 3.9654 1.1542 3.1606 5.9586 4.1793
0.8472 4.5219 2.3238 0.1564 -0.6163 -2.9296 2.3598 1.3071 0.1199 -0.1223 -0.8164 1.2423 1.9846 1.7909 0.5783 5.2205 2.5610 2.5603 -0.0853 2.9690 0.1305 2.8473 2.8108 1.7648 2.4448 3.3221 0.8091 1.9152 3.7936 2.5330
1.6184 2.1715 3.5723 0.6789 -1.2491 -1.8220 1.6855 0.6254 -0.1228 -0.2605 -0.5852 0.0887 1.7895 1.5270 0.2290 3.9737 2.6445 2.3245 -0.6485 2.6518 0.1581 2.6427 2.1264 1.4699 2.2548 3.9861 1.1297 2.3810 3.0888 3.6719
0.9744 -0.9508 3.4068 0.6152 -1.8487 0.0681 0.0094 0.0383 -0.6076 -0.3062 -0.6757 -0.0818 1.5941 1.3000 0.4271 0.8613 2.7896 2.3022 -0.9770 1.6634 0.2887 2.9262 1.8823 1.5745 2.0032 5.2779 1.4205 2.9295 3.6016 3.1483
0.2961 -0.9286 0.5798 -0.0367 -1.0596 0.5850 -0.4249 0.8050 -0.6503 -0.0789 -0.7813 -0.2082 1.3906 1.1335 0.4031 -0.3988 2.1981 2.0651 -1.4709 0.2926 0.4621 2.4390 0.7993 0.3508 0.6918 6.0342 0.9855 0.8208 1.2805 0.5815
0.5476 0.0035 -2.9389 -0.9809 0.0237 -0.0672 -0.2616 1.2554 -0.6290 0.0477 -0.7276 -1.4505 0.3667 0.5778 -0.2920 -0.5358 0.2593 0.6996 -2.2375 -1.0381 0.5663 0.0583 -1.5665 -1.7385 -1.3523 4.1912 -1.6309 -3.5199 -3.6077 -1.1574
0.5842 -1.1152 -4.2419 -1.3145 0.1800 0.3439 -1.1816 0.1732 -0.9447 0.0645 -0.7532 -1.8912 -1.2176 -0.1062 -0.7434 -2.3980 -1.8134 -1.0495 -2.6939 -1.7061 0.5491 -2.5643 -3.0930 -2.7717 -3.2329 0.4146 -4.9443 -5.5735 -5.3262 -2.2122
0.2789 -2.1124 -4.2547 -0.7365 0.0761 1.3009 -2.3668 -0.8728 -1.1322 0.2539 -1.2642 -0.4584 -2.1469 -0.2063 -0.4630 -4.4785 -2.6717 -1.6777 -2.5981 -1.7334 0.4603 -3.5416 -2.9573 -2.8568 -4.5591 -2.0910 -6.2435 -4.4772 -3.7900 -3.7110
0.3310 -0.9842 -3.5839 -0.6368 0.0604 0.9714 -2.3254 -1.2509 -1.1618 0.5740 -1.8858 -0.3248 -2.4639 0.0404 -0.0231 -4.1080 -3.1400 -1.5629 -2.2738 -1.6974 0.4161 -3.7920 -2.9504 -2.9860 -4.8037 -2.4827 -6.2834 -4.0624 -3.2014 -3.8384
0.5801 -0.0497 -0.4499 -1.2001 -0.4569 -0.0134 -1.6910 -2.2175 -1.4172 0.7356 -1.6683 -2.5396 -3.1149 0.0269 0.2153 -3.0032 -4.1067 -1.9605 -2.1515 -1.7700 0.4182 -4.5816 -3.7289 -3.0499 -4.0019 -2.3815 -7.0885 -5.8731 -3.8822 -2.3194
1.2064 -0.9152 2.5678 -0.9003 -0.9088 -0.3875 -1.3313 -3.1879 -1.5035 0.6037 -0.6993 -3.6333 -3.9228 -0.0910 0.2134 -2.7394 -4.6764 -2.6846 -2.6724 -1.6593 0.3172 -5.2716 -4.0877 -2.9961 -3.4250 -2.8137 -8.1141 -7.7613 -4.8607 -2.3794
1.9650 -1.9471 0.7379 -0.2116 -0.4905 -0.2539 -0.9072 -2.5283 -1.0282 0.3462 -0.1003 -2.7643 -3.9776 0.0089 0.0562 -1.6297 -4.2496 -2.7998 -3.4985 -0.9881 0.1180 -4.9217 -3.2368 -2.3330 -2.9851 -3.4516 -7.5025 -6.7953 -4.3436 -3.7037
0.5580 -1.7648 -3.8639 -0.4768 -0.1980 -0.1313 -0.7879 -1.0438 -0.5329 0.1314 -0.4218 -2.1173 -3.2159 0.1613 0.1261 -0.4543 -3.2825 -2.1812 -3.5857 0.2086 0.0681 -3.5974 -1.4982 -0.2177 -1.4451 -2.8686 -4.9199 -2.4882 0.4013 -2.4512
-2.7499 -1.1757 -6.4632 -0.7810 -0.7232 -0.1229 -1.4951 -0.1822 -0.4500 -0.1083 -1.0534 -1.5076 -2.3244 0.1178 0.3076 -1.5288 -2.1513 -1.4511 -3.0007 0.8644 0.2348 -2.2391 -0.2415 1.5694 -0.1156 -0.7979 -2.0776 1.2837 5.2805 0.2402
-2.7820 -1.8844 -7.1086 -0.2095 -0.6723 0.4461 -1.8040 0.2854 -0.4074 -0.2533 -1.0160 -0.3859 -1.8381 -0.1772 -0.0342 -2.4323 -1.6680 -1.3515 -2.7326 -0.0714 0.3505 -2.0974 -0.7716 0.7002 -0.9331 -0.1730 -0.9748 1.2880 4.2427 0.0679
1.5043 -3.4768 -6.9399 0.5419 0.4945 1.6527 -1.1284 0.3801 -0.1224 0.0315 -0.2969 -0.3904 -1.8025 -0.7041 -0.7311 -1.0901 -2.3989 -2.0350 -2.8312 -1.7375 0.3192 -3.1983 -2.3645 -1.1760 -2.4751 -2.5446 -1.9937 -0.6767 1.0755 -1.9513
3.2145 -2.9297 -5.2013 0.9710 1.0009 1.5837 -1.0395 -0.3790 0.0483 0.4006 -0.1925 -1.7545 -1.9412 -1.2653 -1.1798 -1.0123 -2.9087 -2.6512 -2.8893 -2.5521 0.3880 -3.8855 -3.3021 -1.7848 -2.8062 -4.0918 -3.6832 -2.4495 0.3287 -1.9705
-0.7326 0.1338 -2.4866 0.7571 0.0345 -0.4404 -1.9264 -1.3730 -0.2460 0.0624 -1.4837 -2.8398 -2.1277 -1.4842 -1.5636 -3.3172 -2.0924 -2.5532 -3.0698 -2.9274 0.5926 -3.3228 -3.4683 -2.3085 -2.8173 -2.5195 -4.5240 -4.3189 -1.7760 -0.7733
-4.1657 1.9589 -0.4012 -0.2506 -0.8475 -1.8521 -2.1473 -1.9590 -0.7236 -0.6586 -2.9099 -3.1822 -2.3687 -1.3058 -2.0193 -3.7175 -1.3756 -2.3437 -3.3229 -4.0633 0.6749 -2.8771 -3.7506 -3.5832 -3.7169 -2.1804 -5.0159 -5.9047 -6.0246 -2.1219
-2.5526 1.3279 0.7950 -0.8416 -0.5257 -1.4508 -1.2687 -2.2132 -0.8031 -0.6237 -2.8094 -2.7226 -2.2196 -0.9634 -1.8659 -1.3312 -1.3871 -2.2778 -3.1408 -4.9577 0.6070 -3.0557 -3.7149 -3.6387 -4.5017 -4.5946 -5.5530 -5.7135 -6.8813 -5.7336
0.8106 0.7191 0.9523 -0.4170 0.1629 -1.2515 -0.6446 -1.9686 -0.4874 0.0931 -1.6807 -1.3207 -1.2391 -0.3154 -0.8655 0.1517 -0.6343 -1.4087 -2.2934 -3.7839 0.5353 -1.9872 -2.0344 -1.4695 -3.5165 -3.9969 -3.5462 -2.7646 -3.2581 -6.5899
2.0811 0.2984 -0.5920 -0.4710 0.1601 -1.9384 -1.0493 -1.4157 -0.3365 0.4406 -1.1480 -0.5436 -0.0258 0.6762 0.2734 -0.3064 0.6389 0.1142 -1.0636 -1.1653 0.4670 0.4118 0.6880 1.2775 -1.0285 0.0322 1.0140 1.5917 1.0883 -2.7188
1.9161 -1.2352 -3.0857 -1.3015 -0.3200 -1.9061 -1.6777 -1.0803 -0.3874 0.3818 -0.9538 -1.3044 0.4697 1.2651 1.1157 -0.8245 0.7495 0.8177 -0.0695 0.7116 0.4653 1.3146 1.9416 2.7768 0.8516 0.4979 2.2856 2.8564 3.2569 0.7955
1.7368 -2.4822 -4.5126 -1.0608 -0.4531 -0.6652 -1.5063 -0.6216 -0.2588 0.6088 -0.0087 -1.6570 0.1869 1.0191 1.6911 -0.7639 0.1523 0.6236 0.2642 1.0617 0.6383 0.1171 1.0166 2.5675 0.7163 -2.8109 -1.3201 -0.8638 1.7970 -0.2382
1.6330 -2.6169 -4.2628 0.3942 -0.0848 0.7331 -0.9411 -0.0963 -0.2442 0.9604 0.8209 -0.6066 -0.4349 0.5419 1.7580 -0.5786 -0.2060 0.4743 0.0877 0.7703 0.8116 -0.9896 -0.1241 1.4563 -0.6681 -4.6992 -3.9119 -4.6109 -1.0820 -2.8606
1.8936 -3.3695 -3.7545 0.9842 0.1152 1.2916 -1.0965 -0.4181 -0.5688 0.8369 0.4544 0.3534 -0.9336 0.4711 1.3631 -0.4990 -0.6796 0.4355 -0.1306 0.7116 0.7294 -1.2341 0.0463 1.0358 -1.5282 -5.9343 -3.3002 -3.7120 -0.0836 -3.1851
1.6662 -3.9753 -3.9041 0.0560 -0.2576 0.5819 -1.7062 -1.0043 -0.4386 0.3505 -0.4026 0.4885 -0.7111 0.9313 1.2451 -0.5306 -0.5374 0.7054 0.0990 0.8124 0.4353 -0.7042 1.3356 2.1441 -1.0289 -7.5532 -2.1835 0.0722 4.8416 -1.7410
-0.3886 -1.7850 -3.7040 -0.9324 -0.5764 -0.7073 -1.5314 -0.5870 0.3551 0.0640 -1.0758 0.0900 0.0594 1.5884 1.6219 -0.1202 0.8695 1.6140 0.7534 0.6858 0.1757 0.8884 2.5106 3.4055 -0.1366 -5.9153 -0.7702 2.3211 7.1276 0.0126
-2.0168 0.7890 -2.5865 -1.0732 -0.2854 -0.9132 -0.7330 0.0312 0.6581 0.2560 -1.2761 -0.9355 0.1441 1.6702 1.9059 0.4731 1.2423 1.8610 0.9843 0.4422 0.1449 1.6153 1.8190 2.5155 -0.7631 -2.6836 0.0680 0.5042 2.8266 0.5256
-0.7005 -0.6024 -1.8550 -0.6437 0.1202 0.4043 -0.6114 -0.3177 0.0750 0.6946 -0.2536 -2.0557 -0.7903 0.9502 1.8541 -0.5941 -0.8476 0.3380 0.2777 0.0732 0.3298 -0.6740 -1.0143 -0.7768 -3.6859 -3.7240 -2.7630 -4.5333 -5.3630 -3.0189
0.8980 -3.0449 -1.7776 0.2586 0.3156 1.4456 -1.0278 -0.8033 -0.3774 0.9017 1.2247 -1.9572 -1.4197 0.3340 1.6165 -2.9076 -2.6797 -1.3456 -0.5820 -0.7655 0.5063 -3.5274 -3.6439 -3.8930 -6.8462 -6.9972 -6.8597 -8.5715 -11.6934 -8.4144
0.0317 -1.4573 -1.0954 1.2477 0.5982 0.9417 -0.8582 -0.6408 -0.2682 0.7721 1.0813 -0.6465 -1.0131 0.4170 1.2373 -3.2343 -2.3333 -1.3528 -0.6209 -1.3924 0.5484 -3.5332 -3.9530 -3.9441 -6.7183 -7.0633 -6.8892 -7.6948 -10.3898 -7.9159
-0.7962 1.0919 -0.4314 1.1273 0.6733 -0.0979 -0.4573 -0.7398 -0.2369 0.6332 -0.2479 -0.0879 -0.6220 0.5980 0.9665 -1.2421 -1.8947 -0.5531 0.0033 -0.6813 0.5882 -2.2619 -2.6720 -0.9707 -2.9179 -6.1228 -4.4455 -2.9608 -0.9840 -1.1568
0.9563 0.1023 -1.0236 0.0149 0.2812 -0.7004 -0.5959 -1.5530 -0.4620 0.6051 -0.6270 -1.2769 -1.0631 0.3683 0.9371 0.2992 -2.6068 -0.5407 0.4238 0.5067 0.6765 -2.5643 -1.8759 1.7500 0.4191 -7.4459 -4.1437 0.4266 7.4352 3.0716
3.1749 -1.3275 -1.7248 -0.3258 0.1258 -0.7543 -0.6205 -1.8082 -0.3880 0.5859 -0.3518 -2.2340 -1.5148 0.0797 0.6385 0.7349 -2.5483 -0.9827 0.2042 0.3381 0.6790 -3.2403 -2.1420 1.5208 0.1114 -7.0996 -4.9101 -0.6307 6.3238 1.3351
3.1332 -0.0112 -1.7553 0.4304 0.3832 0.0391 0.0045 -0.6544 0.0788 0.6677 -0.6621 -1.3281 -1.1795 0.0935 0.0100 1.1887 -1.1813 -0.8901 -0.3597 -0.8217 0.6245 -2.4965 -2.4766 -0.6126 -2.1120 -2.8416 -4.0598 -3.7850 -0.4115 -1.4108
1.3410 1.7243 -2.1766 0.8545 0.2983 0.6927 0.7082 0.8413 0.3689 0.7752 -0.7522 -0.0130 -0.5989 0.3177 -0.0570 1.5939 -0.4127 -0.5355 -0.8065 -1.2144 0.6393 -1.6065 -2.4747 -1.9197 -3.2287 0.0284 -3.0921 -5.5728 -4.1822 -1.8381
-0.5595 2.2168 -2.4277 0.6109 -0.1265 -0.0310 0.9929 1.2750 0.2718 0.5764 -0.0732 0.2717 -0.3774 0.5214 0.6405 1.3728 -0.4767 -0.4496 -0.9890 -0.5972 0.6023 -1.5027 -2.4958 -1.3457 -2.7044 -1.1430 -3.4047 -5.1885 -3.3654 -0.4533
-1.3361 1.7087 -0.6185 0.7890 -0.1326 0.1055 0.8487 0.6660 0.1452 0.3857 0.6227 0.4623 -0.3462 0.4641 1.2280 0.5425 -0.1261 -0.3554 -0.9297 0.1541 0.4017 -1.1182 -2.1692 0.3413 -1.3620 -2.5986 -3.4890 -3.0921 -0.4440 1.4817
-0.0299 -0.0635 2.1519 1.9163 0.4523 2.7615 0.6927 0.0739 0.0894 0.8012 1.6279 1.3152 -0.3778 0.0813 1.2924 -0.3462 0.1648 -0.2827 -0.7605 0.6233 0.2636 -0.6183 -1.2763 1.5924 -0.2684 -2.6695 -2.9829 -0.7960 1.8952 1.8350
1.6562 -1.0674 2.4595 2.8950 1.0736 3.8687 1.0705 0.1939 -0.0375 1.1899 2.8390 1.6664 -0.4429 -0.2442 1.0050 -0.2690 -0.3812 -0.6980 -0.8425 0.5228 0.3591 -1.0269 -0.6955 1.4397 -0.2519 -2.5353 -2.7502 -0.3376 1.2861 0.2578
0.8956 0.9095 -0.0319 2.0733 1.0646 0.7733 1.6842 0.7042 0.0423 0.5730 2.2669 0.8780 -0.2655 -0.0920 0.3783 1.4011 -0.5945 -1.0418 -1.1372 -0.2315 0.5083 -1.3294 -0.6092 0.9678 -0.2343 -1.2861 -1.8813 -1.0938 -0.7081 0.0513
-0.2175 2.7193 -2.0913 -0.1990 0.2839 -2.0861 1.6495 0.8156 0.4973 -0.3250 -0.1444 0.5557 0.0214 0.3438 -0.2800 3.6573 0.3621 -0.4389 -1.0189 -0.9100 0.5801 -0.4037 -0.3355 1.5355 0.9590 1.1087 0.0048 -1.0977 -0.7694 2.2118
1.8189 0.9447 -2.5049 -1.7317 -0.5715 -1.7448 0.6701 0.1165 0.6924 -0.3036 -1.6888 1.2393 -0.1338 0.5179 -0.3864 4.2042 1.0301 0.3781 -0.4869 -0.8316 0.6450 0.3772 -0.0337 2.4467 1.6777 1.2339 0.9391 -0.1800 1.2551 3.5016
3.7194 -1.5028 -3.0032 -1.7391 -0.7815 -1.3502 -0.6522 -1.0207 0.2354 0.1614 -1.3880 0.4631 -0.7042 0.2970 -0.0634 2.1356 0.0178 0.1147 -0.2266 -0.1004 0.6466 -0.3952 -0.0994 2.7343 0.6294 -1.8557 0.0101 1.0471 4.4688 2.7914
1.1250 -0.7334 -3.3245 -1.0562 -0.4857 -2.2078 -1.1096 -1.5774 -0.1109 0.2109 -0.6446 -2.0643 -1.1278 0.0407 0.1116 -0.1145 -1.5014 -0.8183 -0.1714 0.6925 0.5103 -1.5955 -0.2249 2.6776 -0.4211 -3.7649 -1.1605 1.6497 7.0739 1.7855
-2.5212 1.8324 -2.0212 -0.0246 -0.1527 -1.9881 -0.1996 -0.9661 0.3360 0.1676 -0.2841 -2.6310 -1.1421 0.0531 0.1414 0.1602 -1.4727 -1.0023 0.2583 0.8698 0.4211 -1.2860 0.0452 2.6610 -0.1110 -1.6092 -0.6028 1.4368 6.3724 1.2613
-2.8374 2.7113 -1.0264 0.8571 0.1635 -0.9538 0.5759 -0.0495 1.0220 0.2933 -0.3855 -0.4836 -0.9399 0.2139 0.3391 1.5689 -0.3134 -0.3081 0.7023 0.4126 0.4937 0.3980 0.8660 2.8779 0.7334 1.3345 1.9472 2.6821 4.6048 1.5255
-1.9358 1.3001 -2.0430 0.5197 0.5506 -0.5778 -0.3899 -0.2061 1.1569 0.2281 -1.1653 0.6891 -0.9537 0.2241 0.4531 0.7997 -0.2297 0.0054 0.2908 -0.1167 0.5185 1.2696 1.4320 2.9873 0.8938 1.1748 3.9431 5.1775 5.3997 1.9871
-1.7472 -0.6734 -2.4809 -0.6637 0.8246 -0.0088 -2.2959 -1.5167 0.8889 0.1040 -2.2082 -0.4931 -1.4852 0.0380 0.0424 -2.1341 -1.3905 -0.7037 -0.8721 -0.8687 0.3428 0.2267 0.4878 1.6924 -0.5355 -1.1506 2.5061 4.0997 4.9642 0.2931
-0.3254 -1.9934 -1.6119 -1.2941 0.7550 0.5406 -3.4125 -2.5775 0.7169 0.2207 -2.5326 -2.1264 -2.1036 -0.2091 -0.5562 -4.4660 -1.9183 -1.5293 -1.8934 -2.1646 0.0928 -1.1748 -1.4002 -0.9805 -3.0091 -3.0089 -1.1344 -1.2315 -0.5366 -3.1922
1.9954 -2.5270 -2.9835 -1.2551 0.5884 -0.3127 -3.3890 -2.1949 0.6481 0.2709 -2.0132 -3.1023 -2.0874 -0.3890 -0.6224 -4.6554 -1.5381 -1.5587 -2.2988 -2.9125 -0.0469 -1.5964 -2.3099 -2.5972 -3.9340 -3.9105 -3.2623 -4.8320 -5.3662 -4.0741
2.7543 -2.4132 -6.2344 -1.0834 0.8063 -1.1710 -2.7880 -1.0274 0.5557 0.1331 -1.4295 -3.0966 -1.6457 -0.3538 -0.2529 -3.4183 -1.6269 -1.2860 -2.2278 -2.1855 0.0105 -1.8062 -1.9223 -1.8680 -2.3689 -4.0262 -3.0208 -3.6556 -3.8195 -1.3311
2.2346 -2.0352 -6.7307 -0.6147 1.1203 -0.4486 -2.1570 -0.5453 0.5804 0.1630 -1.1650 -1.7117 -1.4532 -0.1632 -0.1385 -2.3126 -2.1258 -1.3786 -1.9323 -1.2802 0.1764 -2.2095 -1.4089 -0.7229 -0.9819 -3.5012 -2.2193 -1.2499 -0.5075 0.0571
0.6469 -1.1868 -4.3886 0.1312 0.8865 0.2888 -1.8223 -0.6615 0.7712 0.3579 -1.0806 -0.2057 -1.3788 -0.1025 -0.3782 -2.1514 -1.9927 -1.3677 -1.6181 -1.5695 0.2423 -1.8934 -1.1400 -0.8812 -1.4999 -3.8021 -1.7459 -0.6802 -0.8582 -2.2027
-3.4662 1.0192 -2.8888 0.5450 0.5435 -0.2312 -1.7232 -0.5517 0.8791 0.4351 -1.2492 -0.9193 -1.1397 -0.1895 -0.5313 -2.5632 -1.6763 -0.9692 -1.3576 -2.1857 0.2131 -1.0413 -0.7916 -1.1567 -2.1740 -5.4312 -1.2482 -0.6856 -1.1327 -3.9480
-7.2688 3.0339 -3.1036 0.3255 0.7146 -1.0023 -1.7960 -0.6489 0.7404 0.3940 -1.7122 -3.6135 -1.0434 -0.1827 -0.4994 -2.7528 -2.0057 -0.7953 -0.9128 -1.9030 0.2867 -0.7883 -0.5955 -0.1926 -1.5846 -5.9098 -0.6150 -0.1093 2.0983 -2.9042
-5.4200 1.4813 -4.4217 -0.2440 0.7391 -1.2112 -2.3055 -1.3393 0.5305 0.3025 -2.3025 -5.2680 -1.0669 -0.0560 -0.5740 -2.2434 -2.3126 -0.8273 -0.1742 -1.2008 0.4132 -0.9386 -0.8638 0.7995 -0.8155 -4.0498 -0.3445 -0.4995 3.6132 -2.0073
0.6364 -2.8630 -6.3409 -0.5683 0.3149 -0.5050 -3.1281 -1.8884 0.4043 0.2202 -2.9336 -4.5292 -0.8866 0.0228 -0.8538 -1.4298 -2.0347 -0.5780 0.2693 -1.1390 0.3902 -0.9342 -1.3641 0.2631 -1.2213 -2.8585 -1.2030 -2.2436 0.1853 -2.6949
4.5438 -4.9842 -6.1700 -0.3363 0.5178 1.1516 -3.2080 -2.0089 0.2265 0.3391 -3.0864 -3.0280 -0.8458 -0.0647 -1.0901 -1.0369 -1.9917 -0.5841 -0.1117 -1.8328 0.2513 -1.5549 -2.0299 -1.2463 -2.8107 -4.6380 -3.5443 -3.7689 -3.2929 -3.6667
3.9014 -2.6307 -2.6738 -0.0187 1.3752 1.8460 -2.0172 -2.0576 -0.0220 0.4868 -2.3631 -1.9427 -1.2463 -0.3609 -1.1599 -1.0760 -2.5217 -1.3620 -0.7571 -2.6942 0.0923 -3.0522 -3.0255 -2.6972 -4.5749 -7.0543 -6.5076 -5.4458 -4.4814 -5.1235
1.0749 0.8396 0.4530 -0.1383 1.4951 0.3025 -1.1071 -2.0629 -0.1327 0.2937 -1.6982 -0.9837 -1.5187 -0.6339 -1.1136 -1.8812 -2.5307 -1.9586 -0.7785 -3.2037 -0.0903 -3.7508 -3.5530 -3.7659 -5.3617 -6.9251 -7.5789 -7.3554 -5.8777 -6.9560
-1.0551 1.4740 0.6302 -0.4703 0.8185 -0.9064 -1.8586 -1.9972 -0.1623 0.1676 -1.5172 -0.3141 -1.2296 -0.4126 -0.6357 -4.0641 -1.5342 -1.4348 -0.1178 -2.9954 -0.1909 -2.7080 -2.3995 -3.4361 -4.6989 -5.0599 -4.9755 -6.1718 -5.6105 -6.4446
-1.7044 -0.1847 -0.3704 -0.4159 0.4184 0.3117 -2.7685 -1.8412 -0.2515 0.6120 -0.7122 -0.6452 -0.8097 0.2400 0.4022 -5.7531 -0.9079 -0.5108 0.8124 -1.8127 -0.1059 -1.6119 -0.2762 -1.1172 -3.0098 -4.6017 -1.7978 -2.0103 -0.8069 -3.0719
-1.4081 -1.2039 -0.8985 0.2271 0.2464 1.7466 -2.1492 -1.6454 -0.1843 1.0954 0.3571 -2.0589 -0.7888 0.5926 1.1643 -4.2728 -1.6419 -0.2884 1.6256 -0.1266 0.0403 -1.9129 0.8191 1.1286 -1.3216 -5.6845 -2.4924 -0.5163 3.6847 -0.6016
0.0194 -0.7442 -0.6593 0.8934 -0.1640 1.1547 -1.0445 -1.7683 0.1126 1.1182 0.0732 -3.4924 -1.1253 0.3612 1.0222 -1.0054 -2.3480 -0.5072 1.7977 0.7900 0.1061 -2.3293 0.7164 1.3062 -0.3666 -5.3845 -4.8117 -2.4881 2.6819 -0.6618
1.6674 0.3587 -0.5383 1.0907 -0.3338 -0.2817 -0.5861 -1.6400 0.3557 0.9463 -0.8830 -3.4139 -1.3340 0.0685 0.4681 0.7892 -1.6713 -0.4675 1.1927 0.2848 0.1110 -1.5906 0.5443 0.3800 -0.0058 -2.9012 -3.8750 -3.0787 -0.6552 -0.7476
1.3919 1.1507 -3.0624 1.1844 0.1965 -0.7722 -0.1300 -0.1626 0.4911 0.6335 -0.9189 -1.9265 -1.0943 0.0574 0.0582 1.2861 -0.8349 -0.4436 0.5280 -0.8080 0.1069 -0.9766 0.1563 -0.3724 -0.2267 -0.7000 -1.3053 -2.0511 -2.1633 -0.6731
0.5764 0.7657 -7.2457 1.2126 0.9824 -0.5641 0.5205 1.5483 0.5601 0.2070 -0.4806 -0.9255 -0.7203 0.0882 -0.0309 2.2449 -1.1862 -0.6683 0.4090 -1.1288 0.1303 -1.5001 -0.5432 -0.8595 -0.9056 -0.5251 -0.7268 -1.9113 -2.1793 -1.8947
1.7158 -0.0790 -7.6725 0.5911 1.1459 -0.6377 0.7850 1.5293 0.3991 0.1716 -0.3086 -0.9860 -0.5054 0.0574 0.4556 3.3129 -1.4778 -0.3783 0.7730 -0.0904 0.2493 -1.5617 -0.0258 0.0339 -0.3106 -1.0693 -0.3704 -0.4318 -0.0348 -1.1255
2.2603 0.2407 -3.5716 -0.3912 0.2586 -0.7876 0.8860 0.5773 0.1898 0.4354 -0.0052 -0.8147 -0.0577 0.3302 1.3923 3.5565 -0.2312 0.7122 1.5250 1.6342 0.4709 0.0566 2.0669 3.0239 2.5519 0.0301 1.9512 3.9459 5.0579 4.3168
0.0443 0.9812 -0.0927 -1.0663 -0.8386 -0.4205 0.9444 0.2763 0.3102 0.3873 0.5523 -0.4045 0.6342 0.9330 2.0748 2.6805 1.2830 1.4561 2.2999 2.7590 0.6699 1.7360 3.5761 5.6394 5.1104 2.7581 4.0660 7.2199 8.9715 9.1626
-1.0293 0.1033 0.5690 -1.3433 -0.7979 0.0893 0.3372 -0.0690 0.4726 0.2867 1.1116 -1.0072 0.5934 1.1114 2.1524 0.4988 0.9816 0.8916 2.1983 2.7221 0.7300 1.5893 3.0682 5.4365 4.6934 4.7221 4.0893 6.3763 7.8490 8.1995
0.7637 -1.6101 0.4025 -1.0168 0.0863 0.5503 -0.4439 -0.9124 0.2657 0.6139 1.5807 -1.9961 -0.3493 0.5299 1.9097 -1.4409 -0.5789 -0.3122 1.1508 1.9695 0.6797 0.1278 1.4276 3.4869 2.3387 4.4343 2.8742 2.7266 3.0547 4.3795
0.6396 -1.3884 -0.2295 -0.2513 0.2249 1.1751 -0.2313 -0.7889 0.1180 0.8151 1.3178 -1.5906 -0.8600 -0.0017 1.4806 -0.9498 -1.2872 -0.8622 0.1822 0.9085 0.6274 -0.9875 0.0081 1.7793 0.3278 2.6160 1.3574 -0.8703 -1.7844 2.3642
-2.2019 0.9053 -2.3024 0.2185 -0.4067 0.9237 0.3795 0.4099 0.4359 0.3809 -0.1813 0.0199 -0.3372 0.0458 0.6588 0.8780 -0.9323 -0.7362 -0.4184 -0.4982 0.6110 -1.3000 -0.6580 0.5536 -0.7045 0.4761 0.2236 -1.6057 -2.9897 2.1477
-2.2969 2.4895 -4.2294 0.4992 -0.3891 -0.5603 0.1876 0.8236 0.6827 -0.1021 -1.6764 1.1565 0.2623 0.1020 -0.4303 1.3314 -0.7385 -1.0855 -1.2954 -2.0612 0.5286 -1.6003 -1.0449 -0.6193 -1.0588 -1.6149 -0.3275 -0.3941 -0.4840 1.9527
0.1168 1.7255 -4.1041 0.6964 0.1385 -1.0736 -0.5842 0.1170 0.4188 -0.1696 -1.7341 0.6861 0.2423 -0.2561 -1.2806 -0.1153 -0.7869 -2.1559 -2.3847 -3.0729 0.2742 -2.1787 -1.9400 -1.8841 -1.4693 -3.3149 -1.4717 -1.8122 -0.1709 0.7017
0.0844 -0.6064 -3.2055 0.0813 -0.0014 0.2353 -1.3981 -0.5567 0.0777 -0.2480 -1.1005 -1.4248 -0.3171 -0.7195 -1.6697 -2.1798 -0.8551 -2.8286 -2.9876 -2.9340 -0.0603 -2.4616 -2.9729 -3.0506 -2.7147 -3.7513 -3.2525 -5.6226 -4.5636 -1.6250
-0.1169 -2.9403 -2.6432 -0.8658 -0.1841 1.1691 -1.9375 -1.2281 0.0539 -0.4487 -1.0412 -3.7503 -1.2348 -0.9749 -1.6825 -2.9723 -1.6988 -2.6937 -2.9774 -2.0557 -0.2975 -2.4926 -3.1432 -3.4688 -4.0412 -3.3030 -3.9662 -6.5454 -7.3338 -2.6999
3.2026 -3.4848 -1.5770 -1.0731 0.4167 0.0786 -1.8429 -2.2828 0.2013 -0.3970 -1.4627 -4.4099 -1.8048 -0.8422 -1.4013 -1.7902 -2.8825 -2.4157 -2.5492 -1.5789 -0.4062 -2.5931 -2.3818 -2.7524 -3.8986 -3.3443 -2.9703 -3.2241 -4.2329 -0.9488
4.7907 -1.7369 -1.2379 -1.3098 0.3789 -2.7225 -1.8534 -2.9290 0.2950 -0.4566 -2.3163 -3.3044 -1.2578 -0.2539 -1.1296 -0.8549 -2.5568 -2.0043 -1.8725 -1.7319 -0.4238 -2.0660 -1.1709 -1.3725 -2.4298 -3.2068 -0.5946 1.2911 0.8315 1.0049
1.0131 -0.0151 -3.1670 -2.1347 -0.8960 -4.9781 -2.7348 -2.6350 0.1865 -0.9399 -3.4290 -1.9128 -0.3814 0.2001 -1.2693 -2.0560 -1.2190 -1.4263 -1.7582 -1.7888 -0.3453 -1.2502 -0.5064 -0.5884 -1.5619 -2.3215 1.3955 3.2962 2.7322 0.4467
-2.4044 0.1896 -4.5539 -2.0647 -1.2741 -3.8916 -3.2172 -2.0095 -0.1016 -0.9237 -3.4142 -1.4576 -0.5677 -0.2307 -1.7783 -3.7960 -1.4166 -1.7474 -2.9398 -1.9359 -0.2001 -2.3516 -1.8845 -1.9750 -3.0592 -3.3936 -0.6912 -0.3285 -0.6404 -2.5884
-2.3710 0.6469 -3.1775 -0.6306 -0.1937 -1.1771 -2.4020 -1.6850 -0.2467 -0.1448 -2.3404 -2.0767 -1.4572 -1.0428 -2.2759 -4.0568 -2.9863 -2.8762 -4.3842 -2.7816 -0.0439 -4.8321 -4.3227 -4.8722 -6.0094 -6.4906 -5.5443 -6.3852 -6.9720 -6.6790
-2.3825 1.4430 -2.3223 0.2417 0.0422 -1.1348 -1.8433 -1.6712 -0.0866 0.0577 -2.3027 -2.8462 -1.7546 -0.9614 -2.3461 -3.1745 -3.4985 -2.8824 -4.3385 -3.4205 0.1004 -4.9965 -4.3575 -5.5695 -6.7442 -6.6822 -6.0182 -6.3726 -8.8938 -7.8206
-3.1560 0.1555 -4.2782 -0.5421 -1.0327 -2.4797 -2.4334 -1.6178 0.0980 -0.5853 -3.1885 -3.0529 -1.4485 -0.0955 -1.7482 -2.4956 -2.9458 -1.6477 -2.9215 -3.0808 0.1793 -2.8710 -1.9631 -3.1054 -4.4579 -3.8942 -2.2101 -0.8030 -3.7302 -3.9838
-2.7537 -2.1401 -5.6078 -1.7449 -1.5547 -1.7077 -2.9719 -1.5155 0.0248 -0.7605 -2.9617 -3.2351 -1.2751 0.2193 -0.8577 -3.0213 -2.9562 -1.1130 -1.5979 -2.7975 0.1184 -2.2833 -0.8807 -1.6884 -3.4139 -3.5886 -1.8146 0.8925 0.2394 -1.3606
-1.5950 -2.4821 -3.8697 -2.5285 -1.5578 -0.8784 -2.9852 -1.8194 -0.2340 -0.2675 -1.9699 -3.4853 -1.2014 -0.0301 -0.2871 -4.3384 -2.9283 -1.1810 -0.6560 -2.5883 -0.0385 -3.2442 -1.3861 -2.7031 -4.9199 -5.3646 -4.4044 -1.8596 -1.4906 -3.6994
-0.8138 -1.7762 -2.0764 -3.4698 -2.2828 -2.1423 -3.0594 -2.2190 -0.3213 -0.0098 -1.7084 -2.8928 -0.8852 0.2940 -0.0829 -4.6836 -1.7599 -0.3537 0.4415 -1.2295 -0.1510 -2.6898 -0.5007 -2.3547 -4.9970 -4.8460 -3.3093 -1.4210 -1.6021 -4.7282
-0.9067 -1.8540 -2.9053 -3.8941 -2.7220 -2.5612 -3.0166 -1.7324 -0.0396 0.0249 -1.6133 -2.1318 -0.5934 0.7787 -0.1380 -3.9480 -0.8336 0.5288 1.0349 -0.1307 -0.1965 -1.2208 1.0949 -0.5331 -3.4833 -3.4466 -0.0830 1.7865 2.1527 -2.7093
-1.0708 -1.8296 -4.6169 -2.5837 -1.5808 -1.2750 -2.5206 -0.7199 0.2225 0.2893 -0.9241 -2.6286 -0.6963 0.2727 -0.4217 -3.6004 -1.2521 0.0373 0.2946 -1.0629 -0.2633 -1.2281 0.6897 -1.0031 -4.0074 -4.1585 -0.0584 1.8904 2.1639 -3.7788
0.7847 -0.9974 -4.4174 -1.0093 -0.1987 -1.3289 -1.7618 -0.5699 0.0033 0.5828 -0.3443 -3.2768 -1.0243 -0.4511 -0.5051 -3.0278 -1.8042 -1.0232 -0.8491 -1.8092 -0.2659 -2.1930 -0.9994 -2.9276 -5.4727 -5.3799 -2.0382 -0.7621 -2.1062 -6.7213
3.3195 -0.2921 -1.6690 -0.5466 -0.0374 -1.6994 -0.7673 -1.2782 -0.4547 0.7884 -0.0638 -2.5626 -1.3474 -0.3972 -0.3431 -1.2364 -2.0379 -1.8645 -1.3728 -0.7631 -0.0449 -3.1122 -2.3549 -3.2983 -5.2512 -5.6740 -3.4368 -3.2230 -4.3438 -6.1854
3.2557 -0.2904 1.7081 0.3377 -0.2230 0.7883 0.2248 -1.6022 -0.5625 1.1797 0.5875 -1.4209 -1.6874 -0.4937 -0.4888 -0.0113 -2.6973 -2.8108 -1.7662 -0.2996 0.1877 -4.1439 -3.5105 -3.0628 -4.9131 -5.9642 -4.5721 -4.6989 -4.3634 -4.7001
2.2968 -0.4246 2.5057 1.7433 0.2786 3.0121 0.5502 -1.1647 -0.1986 1.5150 1.2789 -0.8216 -1.7787 -1.1509 -0.6117 -0.2981 -2.9237 -3.1068 -2.0905 -0.9878 0.0914 -4.0924 -3.6018 -2.8125 -4.7465 -5.5288 -4.0406 -3.2610 -3.6108 -4.6726
2.3676 0.0939 -0.0925 1.5881 0.8426 0.9517 0.2208 -0.5871 0.1783 1.1517 0.9435 -0.5041 -1.3066 -1.1745 -0.1720 -0.1836 -1.7393 -1.9695 -1.6453 -0.6819 -0.1775 -2.0114 -1.6475 -0.7641 -2.4364 -2.8002 -0.3171 1.0749 -0.2594 -2.6378
0.5318 1.1887 -3.1069 0.3686 0.7272 -1.7787 0.0394 -0.1004 0.1921 0.2288 -0.3590 -0.3280 -0.6737 -0.6135 -0.0245 1.0135 -0.5663 -0.7881 -1.3043 -0.0695 -0.2664 -0.1322 0.1388 1.5165 0.2690 0.7884 3.0805 2.6676 2.2387 0.6774
-2.7872 2.2905 -4.0323 -0.2307 0.3352 -1.2952 0.4774 0.5767 0.2171 -0.3315 -1.3661 0.2202 -0.3173 -0.6755 -0.6858 2.0351 -0.5754 -0.7627 -2.2246 -0.8710 -0.2300 -0.4344 -0.4580 0.8682 -0.0459 2.1742 2.5151 -0.8017 -1.3401 0.6774
-2.8721 3.2323 -3.3638 -0.7069 0.2571 -0.3938 1.0607 1.1727 0.7357 -0.0688 -1.1857 1.3760 0.0828 -0.8599 -0.9714 2.3065 -0.5499 -0.8067 -2.9728 -1.5125 -0.2304 -1.2246 -1.4891 -0.5824 -1.3807 0.8065 0.7177 -2.8769 -4.9683 -0.8581
-0.5739 3.4752 -1.5658 -1.3521 0.3310 -0.9505 0.9523 0.8763 1.2873 0.6166 -0.1158 1.6261 0.6741 -0.0721 -0.1514 1.6039 0.2458 -0.0235 -1.9414 -0.3897 -0.1766 -0.4863 -0.3855 0.9722 -0.0547 -0.8733 1.3793 0.3450 -0.2893 0.4811
0.0999 2.3711 1.5700 -1.2393 0.2168 -0.6144 0.1601 -0.2837 1.2733 1.1515 0.7627 0.2499 0.8786 0.6906 0.8738 -0.0200 0.6709 0.7194 -0.6136 1.0530 -0.0210 0.8905 1.4726 3.5017 2.3605 -0.4972 2.8824 3.3324 6.3140 2.6816
0.3070 1.2918 4.0007 -0.5978 0.2245 0.3343 -0.4278 -1.1510 1.0677 1.2514 0.4446 -1.0532 0.5426 0.7659 1.0908 -1.0347 0.5772 0.8060 -0.8944 1.2037 0.1290 1.4868 1.5926 2.9079 2.2212 1.4937 3.1264 2.0443 4.2331 2.3125
2.0359 2.1102 3.5197 -0.3517 0.7556 -0.1174 -0.2660 -0.9405 1.2075 1.0528 -0.8113 -1.1412 0.4514 2.1268 0.5297 -0.1313 1.2191 0.7761 -1.7903 0.6126 0.2200 1.6073 0.6231 0.4108 0.2591 2.5409 3.3395 0.1882 -2.8029 1.2337
3.0226 3.3499 1.6255 -0.4645 1.2698 -0.2601 0.3891 -0.0606 1.5383 0.9742 -1.3880 -0.6306 0.9684 4.4722 0.0816 1.7579 2.1575 0.9891 -1.4856 0.5108 0.2131 1.7821 0.5792 -0.2132 -0.1976 1.8008 3.8951 0.6116 -5.1946 1.3733
1.9050 2.3931 0.4326 -0.6502 0.8934 1.0941 0.8644 0.6608 1.6211 1.1025 -0.5097 -0.1140 1.2325 3.7158 0.4920 2.7036 1.8908 1.3397 -0.2795 1.0027 0.0797 1.8590 1.6093 1.2682 1.2934 1.2005 3.5951 1.6619 -3.0123 1.4519
1.0205 0.5929 -0.4472 -1.0511 -0.2047 0.8970 0.6588 0.7814 1.2397 1.1279 0.5961 0.2667 0.7304 0.2960 1.4872 2.0150 1.0850 1.8622 0.6129 1.5857 -0.0558 1.9157 2.6561 2.7198 2.7177 1.7194 2.9156 2.2536 -1.2099 1.9727
2.2920 0.6096 -0.9798 -1.5184 -1.0615 -1.8154 0.2478 0.3838 0.6947 1.0525 0.9241 0.4270 0.3704 -0.4669 2.3752 1.1589 1.1105 2.4235 1.2956 2.2642 -0.0533 1.9880 3.2812 3.4084 3.4494 2.1924 2.8190 2.5612 -0.3207 4.5584
4.7727 1.2332 -0.0488 -1.6007 -1.1624 -3.3073 0.5933 -0.1156 0.5043 1.1291 1.0524 0.4029 0.7066 1.3946 2.8850 2.0512 1.3021 2.4910 2.2203 2.7220 0.0685 1.6674 3.6037 3.8080 3.9966 1.9256 2.8272 2.5918 1.0703 6.7489
