Fp1 Fp2 F7 F3 Fz F4 F8 FC5 FC1 FC2 FC6 T7 C3 Cz C4 T8 CP5 CP1 CP2 CP6 P7 P3 Pz P4 P8 PO9 O1 Oz O2 PO10
0.5363 3.7647 -5.6962 1.2938 0.4543 -0.7165 -1.8747 14.0737 0.0959 -1.6754 1.8814 5.4163 -2.4254 -10.1632 -2.4069 -1.5240 2.7114 0.4003 -2.8323 -0.8768 3.6620 2.7496 0.7828 -0.7985 -2.6180 1.1996 6.9331 3.4210 6.4252 3.2049
3.1150 4.2520 6.0693 -0.3151 1.8801 -1.2957 4.6215 3.0496 -0.1046 -1.4092 -2.1889 3.3905 -3.3829 -9.9438 -2.9105 -5.6835 0.8863 -0.4950 -2.2564 -1.5458 1.1721 1.1968 0.9928 -1.5711 -4.1962 2.4401 5.7475 3.5917 5.7572 3.3132
5.3015 7.9170 9.5298 -1.7476 2.7076 -1.0601 8.4015 -5.8682 0.3464 -1.2612 -3.3378 10.5399 -3.0164 -8.4436 -2.5999 -5.8394 2.1132 -0.0892 -0.9472 -0.6064 -0.4252 0.2914 2.3539 -0.9772 -2.0515 3.6106 5.1719 4.4708 6.9078 5.1884
2.8336 13.2480 6.1072 -0.5795 2.1533 -1.0369 9.0973 -1.0478 0.9850 -1.9046 -4.2977 14.7763 -2.1381 -8.1275 -3.4295 -3.7379 2.0755 0.3254 -1.1083 -1.2594 -1.4500 -0.5094 1.9763 -1.4021 -0.0809 0.9580 3.8996 3.2344 6.6359 3.9080
-1.9058 14.2140 -0.4604 -0.3123 0.6854 -2.0587 8.3281 2.0650 0.5318 -2.5039 -6.8999 -0.9975 -1.8406 -8.1823 -4.7204 -3.9933 2.7225 0.3799 -1.6574 -2.3374 -1.6838 0.2358 0.9304 -2.2970 -0.3120 -1.1272 2.9177 2.1063 5.5537 0.3089
-0.6913 4.9114 -6.2855 -2.8217 -0.1152 -2.8971 5.2781 -4.9713 -0.6393 -1.7096 -6.1755 -19.8136 -1.9267 -7.0638 -2.8959 -5.0369 5.7492 0.5648 -0.7108 0.0894 -1.8039 1.9282 1.3435 -1.4334 0.0825 -0.9179 2.8929 3.7652 6.6586 0.4881
5.2964 -8.0868 -5.3384 -3.8495 0.5440 -1.2138 0.7620 -7.1395 -1.1080 0.0539 -0.1323 -15.5834 -2.3569 -6.8774 0.5468 -3.6732 4.4683 0.0132 0.1039 2.9502 -3.9497 0.3860 0.7809 -1.0255 0.9425 -2.2774 1.2963 3.0754 6.0931 2.5096
5.1597 -11.1566 -3.5080 -1.4611 1.4131 2.1662 -2.4119 1.2100 -0.5596 0.9390 4.1953 -0.8770 -3.4008 -8.3742 0.9688 -4.0573 -2.3446 -1.4369 -0.8262 1.5463 -7.0626 -4.3343 -1.8714 -3.2681 -1.1708 -5.0663 -2.0015 -2.6809 0.6443 -0.0219
-2.9360 -3.3922 -12.0214 0.8702 1.1443 2.8604 -4.5748 7.6552 0.4786 -0.4596 2.4271 -4.8637 -3.2376 -8.3127 -0.8342 -10.0693 -3.4787 -1.7372 -1.8741 -1.9037 -7.7440 -6.1102 -3.0238 -5.3785 -5.4837 -6.4860 -3.2142 -6.8148 -4.3622 -5.2542
-8.1902 4.5829 -18.8089 1.1561 0.5840 0.1003 -5.4512 5.8968 1.1677 -3.3453 -0.8717 -16.7318 -1.8712 -6.5474 -1.2893 -15.4687 2.0569 -1.0738 -2.0489 -3.5276 -7.2455 -4.1115 -2.3248 -5.4659 -7.8049 -7.6939 -2.4778 -6.3755 -5.1467 -6.9998
-5.4978 7.1900 -7.8894 0.2007 1.0806 -1.4500 -2.0517 -0.7644 0.5587 -5.1104 -1.9817 -9.7136 -3.7777 -6.5944 -1.0389 -12.9880 1.1556 -2.0668 -2.2698 -3.1544 -8.3799 -4.1653 -3.1448 -5.1676 -7.2134 -9.3875 -2.7175 -5.7967 -4.3933 -5.0416
-1.9381 6.4470 3.8129 -1.6551 1.5934 0.1662 2.5485 -8.2045 -0.8726 -4.5996 -1.9493 4.7036 -8.3681 -7.8572 -1.8359 -5.8060 -5.4629 -3.5200 -1.8234 -1.5884 -8.1307 -5.8266 -4.0810 -4.1705 -5.5670 -7.9080 -1.6022 -4.6287 -2.4014 -2.4800
-2.1629 5.6765 -1.9619 -3.1667 0.4044 1.4002 2.0895 -9.4727 -1.3298 -3.4333 -1.0302 5.9084 -8.4470 -7.4290 -2.6471 -1.9977 -4.8319 -2.2602 0.0799 -0.1427 -3.9884 -3.7070 -1.9922 -1.5234 -3.6364 -2.6781 2.9131 -0.1906 1.9707 0.2409
-2.2700 7.0526 -8.9586 -2.2736 -1.1733 0.0247 -0.0111 -1.4544 -0.2645 -3.0284 0.1363 -0.3029 -3.5634 -6.6369 -3.1836 -3.6757 2.4202 0.2961 1.2392 -0.9811 0.3611 0.5309 0.3807 -0.0513 -2.0598 0.7593 6.3235 3.2659 4.8165 2.6242
0.0259 8.2977 -1.9809 0.0184 -0.2969 -0.8876 2.8822 5.5881 1.0208 -2.5706 -0.8208 -7.8462 -0.3488 -7.3785 -4.6312 -6.1251 7.4266 1.1846 0.1401 -3.3051 3.1174 2.2796 -0.0021 -1.4549 -1.9876 0.8602 6.6818 3.1154 3.9028 2.5461
2.1196 4.0260 6.0348 0.9300 2.6526 2.0632 6.7819 2.6508 1.3072 -1.2162 -1.9332 -14.4443 -0.6432 -8.3600 -6.2844 -5.6370 8.1000 0.3934 -1.7438 -4.3274 5.0593 1.8762 -1.4516 -3.4148 -3.2679 2.3127 6.9654 2.7203 2.5063 0.3040
2.4960 -3.8785 1.8054 0.1823 4.3228 6.4499 4.8379 -3.0013 0.6571 -0.1162 0.5057 -7.1416 -1.9975 -9.0365 -6.5366 -4.7511 4.1617 -1.5132 -3.2533 -4.2308 2.8845 0.1712 -2.9230 -4.7536 -4.8138 4.5478 5.9454 1.4734 1.1135 -1.6110
1.3759 -6.2002 -10.0330 -0.7185 3.2813 7.2951 0.0014 -1.8398 0.0153 -0.3565 3.3896 9.4618 -3.3091 -9.9920 -5.2884 -6.0984 -1.6935 -3.5165 -3.7909 -4.2532 -3.0074 -2.3030 -4.2936 -5.2350 -5.1885 2.8285 1.7780 -2.3276 -1.6826 -1.7131
-0.3954 0.5227 -14.5927 -0.9112 1.6253 4.4838 -0.4030 2.1212 0.0649 -1.0528 2.2088 10.1909 -3.2559 -10.2348 -3.8137 -5.9942 -0.9981 -3.0392 -2.2582 -3.8040 -3.9764 -2.0840 -3.0491 -3.2657 -3.0082 0.1227 -0.7021 -3.3256 -2.1941 0.7300
-0.2700 10.1182 -2.4009 -0.7086 1.2946 1.4204 3.9819 0.1340 0.3363 -1.1673 -0.2130 -1.7421 -1.3712 -9.5920 -3.5573 -2.1849 5.6653 -0.4370 0.1533 -2.9023 1.5391 1.2210 0.5398 -0.3634 0.3024 1.5909 1.4425 0.9414 1.8381 4.7572
2.1352 13.4666 11.8969 -0.8561 1.4687 0.1119 5.6735 -4.7199 0.1357 -0.6106 0.8858 -1.6952 -0.3669 -9.6678 -3.4950 -0.4078 7.2102 0.3590 0.6918 -1.9550 4.2441 2.4489 1.5349 -0.4812 1.2469 3.9017 3.1552 3.4496 4.7320 6.2744
2.9079 8.2823 8.0125 -0.6250 1.0635 0.7755 1.2011 -0.8807 0.0930 0.1493 3.7024 4.3799 -1.1494 -10.1558 -1.6174 -4.0604 2.2003 -1.1708 -0.3656 -0.5651 1.5089 0.1010 -1.1143 -2.7101 -0.3987 4.1322 1.5550 0.7856 2.3202 3.4907
0.8565 5.2881 -1.8402 0.5407 1.0160 1.7342 -1.0650 8.3864 0.6022 -0.4201 2.9275 1.2951 -1.5374 -9.4982 -0.2376 -6.9876 -0.9995 -1.6858 -0.7786 0.3913 0.3455 -1.5977 -2.5793 -2.8698 -1.4904 6.7517 1.4464 -0.7594 -0.3451 1.1277
-0.1882 11.0280 3.1685 0.4098 1.9640 0.8433 4.7643 5.6103 0.3036 -2.8152 -1.5840 0.9731 -1.8021 -8.5233 -2.0245 -4.5905 -1.1843 -0.9071 -0.2207 0.4520 2.0660 -1.2462 -0.8409 -0.4635 -0.9028 11.3995 5.0118 2.2913 2.0353 2.6644
1.2019 12.0029 10.5374 -0.9454 2.6649 -0.7441 10.7582 -6.6885 -0.6925 -4.5953 -5.2554 2.9883 -2.5985 -8.8106 -4.0517 -1.4620 -0.5987 -1.0918 0.1900 0.7066 1.5928 -1.2258 0.4084 1.6449 -0.6917 9.7682 6.2387 4.2291 5.3911 3.8767
2.1672 0.2252 4.3092 0.1318 2.4064 0.1566 9.4321 -8.3105 -0.4248 -4.2075 -4.8716 -8.7315 -1.7894 -9.9203 -3.9551 -1.5748 2.7007 -2.0525 -0.3696 -0.1968 -1.0595 -2.2873 -1.7510 1.3382 -2.0005 1.2007 1.5172 0.6446 3.0335 1.0514
1.2465 -8.6887 -2.8408 2.4211 2.1454 3.7051 3.3430 -0.4541 0.2129 -2.9349 0.3779 -13.7004 -0.5456 -10.7169 -3.2853 -2.6214 4.2117 -2.9977 -1.8687 -3.2540 -2.9593 -4.2710 -5.4348 -0.8854 -3.2556 -4.5178 -3.5041 -4.0360 -2.7302 -1.7414
-0.0440 -4.7616 -2.7344 1.8733 2.4208 5.5074 -2.3917 2.1979 -0.5544 -1.9562 6.4822 5.9185 -1.8440 -10.4861 -1.9361 -3.8041 -1.9313 -3.8574 -2.9780 -4.3033 -4.2717 -6.6060 -6.6839 -2.4619 -3.0662 -2.5680 -3.0705 -4.0012 -4.2129 -0.5212
-0.2215 1.4407 -5.4141 0.2852 2.4596 2.3467 -3.8630 1.8833 -0.8597 -1.6311 5.9282 13.1704 -2.3222 -8.8179 0.3699 -5.7156 -6.0378 -2.7236 -2.3421 -1.1191 -4.0736 -6.0910 -4.0277 -1.9051 -1.7337 1.8143 0.7162 -0.6438 -0.8442 1.4142
0.7875 1.6094 -7.3828 0.2323 1.8653 -1.1789 -0.9961 4.0893 0.3441 -1.5100 0.9126 -8.5829 0.7238 -6.6845 1.0445 -4.8811 -0.4986 0.7430 -0.6486 1.6275 -1.5040 -2.2631 -0.2448 -0.7778 0.2309 3.5358 3.2232 1.1767 1.2058 0.5145
1.9661 -1.5191 -0.2139 0.1362 1.2417 0.2522 0.4142 4.8373 0.7131 -0.2084 0.9864 -17.4211 2.4552 -5.9226 -0.3742 -2.1173 3.0933 2.6125 -0.0006 0.5604 -0.2828 -0.4919 0.7779 -1.2042 0.9526 3.1268 3.6879 0.4257 -0.5855 -1.8693
1.9317 -3.6760 2.5164 -0.1151 0.7126 2.0275 -1.8135 4.4021 0.0016 1.4235 3.4838 -2.1037 1.2484 -6.6067 -1.6756 -4.7330 -0.1044 1.4110 -1.2347 -1.7508 -1.4292 -2.3268 -1.2247 -3.3316 -2.6721 1.9753 2.6168 -1.6859 -4.0962 -5.4899
0.7104 -1.4565 -5.4612 0.4615 -0.0483 -1.4066 -1.8728 3.7082 0.0364 0.8141 -0.4220 3.0157 1.2447 -7.1878 -2.5371 -11.0652 0.2432 0.2190 -2.6403 -2.5232 -1.3391 -3.0800 -2.9324 -5.5290 -8.4288 -0.1991 -0.0078 -4.1327 -7.0573 -9.9145
-0.3001 4.7273 -3.6483 0.1468 -0.4190 -5.0338 1.9996 -1.5204 0.1734 -0.8663 -5.5724 -3.5679 1.3270 -7.1002 -2.8550 -12.2262 2.0879 0.0408 -2.1488 -2.1228 -1.7804 -2.2353 -2.1747 -5.5423 -9.3928 -1.8697 -1.2688 -3.7766 -6.6497 -9.1784
-1.2652 8.1038 11.2756 -1.0280 -0.0068 -3.0833 3.3225 -6.6058 -0.3648 -0.2907 -3.4500 0.9321 -1.1814 -6.8268 -1.2005 -9.8134 -3.0231 -0.3526 -0.3383 -1.5880 -6.4350 -2.9663 -0.6109 -3.0845 -5.5881 -1.7158 0.5955 -0.2295 -3.0415 -3.1244
-3.3957 4.4682 14.2912 0.0324 0.1006 0.9060 0.1744 -2.3554 0.0570 1.6807 0.1149 8.6602 -2.1560 -6.3746 1.1592 -10.1794 -6.9826 -0.3038 0.7087 -1.2527 -10.8129 -3.6088 -0.6574 -1.1400 -3.9542 -3.2587 0.6346 0.1601 -2.2432 -1.8253
-5.1354 -2.0701 0.4579 2.6952 -0.2870 2.0712 -0.9428 4.9530 1.4778 1.7157 -2.3188 1.6807 0.3267 -5.8808 1.0439 -9.9308 -2.4072 0.6614 0.6379 -1.4730 -9.7228 -1.5605 -1.6486 -1.4550 -5.2222 -7.2667 -3.2016 -3.7569 -5.7025 -5.9328
-3.5991 -4.9493 -9.2768 2.6766 0.0785 1.0779 2.6355 3.8046 1.6627 -0.3171 -6.0516 -11.5331 1.7707 -5.8665 -1.1062 -5.3015 3.0187 1.5858 0.5107 -2.1661 -5.4644 0.9978 -1.1754 -1.5031 -4.0984 -6.0403 -3.9199 -3.5436 -6.0753 -4.9624
0.4414 -1.4663 -6.7199 -0.2594 0.6301 -0.4620 5.6116 -2.1237 0.6746 -2.1488 -5.3303 -12.9863 1.4006 -5.7676 -2.2505 -1.7576 4.6977 2.5124 0.6445 -2.1011 -1.3305 2.0954 1.0384 0.2180 -0.6299 2.7965 1.2650 2.5727 -0.9466 0.6272
3.0527 3.2621 -0.6628 -2.0996 -0.1074 -1.8158 3.4187 -4.3259 0.3032 -2.7967 -1.3781 -4.7577 1.8163 -4.9305 -1.6255 -3.0607 5.5263 3.2584 0.5477 -0.5577 1.8039 2.3404 2.6708 1.1625 0.7771 8.3838 5.1433 5.8313 2.6783 1.4648
2.5394 0.7527 2.1859 -0.9279 -0.9433 -0.8479 -2.6588 -2.0720 0.5529 -2.6282 3.9027 -0.7037 2.1845 -4.4740 -0.6528 -5.2651 5.4479 2.5824 -0.1392 0.9217 2.1859 1.4611 1.8160 0.0350 -0.2373 4.0107 3.6266 2.9271 1.1065 -1.9227
1.1394 -6.3918 1.7604 1.7147 -0.3983 2.7122 -7.1092 4.4317 0.7829 -2.0092 8.3748 1.2850 1.7569 -5.4172 -0.3853 -5.7184 4.0013 0.9291 -1.2313 0.5067 -0.5010 -0.7025 -0.7844 -1.1671 -1.1546 -1.6738 0.8429 -0.8072 -2.0407 -3.5014
0.3449 -6.7352 0.9712 3.1689 0.3352 5.2253 -5.8461 10.2601 0.8899 -1.3541 8.0088 8.6263 1.6057 -6.7563 -0.6436 -5.2689 2.9447 -0.1291 -1.7134 -0.5318 -2.0956 -2.1365 -2.3643 -1.0291 -1.3253 -0.5116 0.1989 -1.9774 -3.2032 -3.3621
-1.1123 0.3175 0.3441 2.0069 0.3582 4.6972 -1.5173 5.4044 0.5579 -1.1195 3.2531 7.5036 1.6733 -6.9491 -0.3839 -2.8333 4.2973 0.1045 -0.3355 0.8289 1.5327 -0.6084 -0.5447 0.6257 -0.6422 3.8033 1.9442 0.0608 -0.4119 -2.2998
-2.3403 4.6573 0.4296 0.9037 0.5458 3.2511 1.0072 -1.5929 0.5880 -1.2845 -0.3373 -9.3820 3.1075 -5.7477 0.6954 0.7701 10.0259 1.7251 2.1199 3.8973 7.6262 3.4083 3.5028 3.4171 1.0372 6.7398 6.1072 5.2570 5.7857 0.9455
-0.1281 2.2804 5.7404 3.6829 1.2060 2.8140 2.0289 7.0648 2.1532 -1.7979 -0.4248 -13.8583 6.5067 -4.5519 1.2919 -0.2927 15.9810 3.0815 2.6118 4.4453 8.7666 5.6682 5.0746 4.9153 1.4975 8.5969 9.5091 8.6897 8.9428 3.1688
3.6881 -1.8678 11.5008 7.5661 1.9000 3.1200 2.7611 18.8057 3.3999 -2.7859 1.0880 8.8573 6.8696 -4.9546 0.8580 -6.0440 13.5130 1.7609 0.4651 2.4574 4.8874 2.9111 2.3631 3.3046 -0.4345 8.3639 7.6715 5.9608 5.4289 1.7014
3.3685 -2.8840 4.1962 6.2336 2.0204 3.6223 -0.0261 10.9797 1.9013 -3.3692 3.9648 24.3251 1.3147 -6.3011 1.0950 -7.6846 4.5519 -0.9503 -0.8191 2.6754 3.7747 -1.4574 -0.3128 1.3279 -0.9032 6.4856 3.3329 2.3823 2.7596 1.4509
-0.7490 -1.2615 -11.9066 1.1057 0.7173 4.0627 -5.6679 -3.0387 -0.4979 -2.4873 7.4733 8.4793 -3.1976 -6.5233 2.5446 -2.6851 0.8366 -1.6478 0.6129 4.9496 6.2710 -1.9898 0.3732 2.2393 2.8215 7.2157 2.7190 4.3372 6.9767 5.3709
-2.7099 1.8173 -15.7251 -1.1702 -1.2442 3.4282 -5.4060 -2.8008 -0.8107 -1.2051 6.4985 -10.0812 -0.9580 -5.5883 3.0207 1.3996 5.7942 -0.2028 2.3834 4.6649 6.4673 1.0873 2.3824 4.7692 6.9751 9.9430 5.3600 8.4661 12.2253 8.5858
-0.8185 8.8583 -0.8973 -0.2760 -1.5904 0.8457 3.1123 0.1026 0.0199 -1.0872 -0.2038 -3.8288 2.4865 -5.1390 2.0627 1.3027 10.6182 1.0742 2.8711 3.0390 4.8670 3.6880 3.5468 6.1179 7.4061 9.9869 7.0990 9.1630 12.1544 8.2341
1.3435 15.9225 13.8764 0.5887 -0.3008 -2.2252 10.0799 -2.2029 0.1654 -1.6594 -5.9894 10.0789 1.6537 -5.3638 1.2218 1.1051 9.3128 1.1997 2.6354 3.5782 5.1088 4.0366 4.0805 5.5115 4.9696 8.3271 7.3157 7.1798 8.6641 6.5638
1.2660 12.2639 8.5375 2.0826 0.0361 -3.2451 9.0595 5.6366 0.5030 -1.8597 -7.0165 8.1231 0.5555 -5.3009 0.0862 1.4559 6.0859 0.8460 1.7995 3.3767 5.4436 3.6984 3.9477 3.6982 2.4188 7.8307 6.9096 5.5265 5.4345 4.3327
-0.7117 1.0025 -9.0531 2.8969 -1.7149 -1.7860 2.8190 17.3881 1.0507 -1.1126 -4.5488 -1.0246 1.6168 -4.8671 -0.4912 -0.8598 4.1306 0.7085 1.3299 1.1614 3.4236 3.6112 3.2129 2.7799 1.1871 6.3444 5.3589 4.6561 3.7850 1.6144
-2.6976 -4.0686 -12.4102 -0.4972 -3.6581 0.6716 -4.4933 8.9875 0.0160 0.7829 0.8672 -2.1736 0.7140 -4.3535 2.3780 -4.5835 1.2992 0.7394 2.8124 1.9249 0.2327 2.7021 2.7758 4.0080 1.0341 3.3065 2.8828 3.5089 3.9666 0.2146
-2.7344 -3.2947 0.5907 -3.5035 -3.6518 2.5030 -7.4254 -8.0342 -1.3358 2.0955 5.0819 -1.0001 -1.3893 -3.8849 5.4208 -5.0682 -0.0813 0.6890 4.3706 4.7785 -2.0352 1.3209 2.4208 4.9228 0.5931 2.0398 0.9878 1.5670 4.2491 -0.2897
-1.4242 -5.2791 6.9309 -0.4601 -2.0279 3.2393 -2.9411 -7.0908 -0.4003 0.9722 2.9848 -2.7093 -0.3236 -4.1535 3.2742 -2.2699 3.2089 0.5646 3.4777 3.4289 -2.6466 1.1179 1.4484 3.7784 -0.3768 1.7064 0.1957 -0.0597 2.7677 -1.5503
-1.6651 -7.8052 0.9039 2.6677 -0.7731 4.4731 0.5353 1.7652 1.1285 -0.5345 0.3546 0.3614 1.2418 -5.2566 0.0250 -0.9526 5.8922 0.4314 2.3444 -0.2111 -2.5919 1.5099 0.9156 2.9623 -0.9225 -0.0915 0.3632 0.5127 1.3264 -2.2876
-4.3175 -6.2079 -3.3669 0.4307 -0.7388 6.4817 -4.5081 -0.1426 0.7787 0.4219 4.0525 5.5267 -0.3716 -5.4268 1.1918 -2.7804 3.6029 0.4830 3.3199 -0.2856 -2.9700 1.1874 1.9851 3.4959 -1.3495 -1.1257 1.6642 2.9211 2.1335 -1.7066
-6.0736 -3.5122 -1.1028 -1.5695 -1.1025 5.6662 -8.9820 -3.2920 0.2123 2.3933 6.8493 0.2278 -1.8108 -3.5412 2.9487 -4.2885 1.0070 1.1579 4.4172 1.6291 -3.5146 0.8826 3.5489 3.7171 -1.8009 -1.5796 2.8983 4.2464 3.6361 -1.2396
-4.1800 -1.7075 1.7566 -0.2512 -1.1536 1.1550 -3.4973 1.3989 1.0732 2.7284 1.3443 -10.6656 -0.1580 -1.5053 1.4126 -4.1959 2.2898 2.4198 4.1058 1.6382 -4.5149 1.0862 3.5771 3.7257 -1.2863 -5.3054 1.8477 2.4786 3.2791 -1.3046
-1.8934 1.2555 0.2252 -0.1870 -1.0636 -1.7265 3.1862 4.2880 1.7117 1.9859 -4.8747 -12.3714 1.5771 -1.3936 -0.3119 -5.3837 4.5581 3.0633 3.4039 0.4847 -5.7859 0.6181 1.7483 3.5638 -0.6522 -9.5726 -1.0708 -1.4764 0.5367 -2.6409
-3.1649 4.1915 -5.3240 -1.9925 -1.2242 -0.3357 1.1356 0.6647 1.0078 1.6083 -3.7988 -9.0957 0.6164 -1.9685 0.1469 -7.7213 4.9759 2.2548 2.9875 0.2746 -2.8041 0.0638 0.2957 2.1082 -0.7365 -8.8437 -2.2890 -4.2005 -2.4439 -5.7281
-4.2507 3.3427 -7.1348 -2.3101 -1.4530 1.4979 -2.0815 -3.8878 0.2940 1.2118 -1.0727 -10.0821 -1.1725 -1.2512 0.9244 -7.1930 6.1897 1.2786 3.3461 1.1980 5.6258 1.8003 1.4080 0.9231 0.1458 -5.6679 0.0434 -2.6682 -2.1026 -7.2426
-1.1575 -2.2191 -3.2194 -1.1502 -1.0012 1.8990 0.6493 -5.3824 0.5112 0.6379 -2.1227 -5.4406 -1.2587 -0.2547 0.8525 -3.7451 8.5649 1.1453 4.4445 1.9881 8.9760 4.1351 3.4365 1.2971 1.2737 -4.4987 2.5587 1.0017 0.8125 -5.3309
0.5323 -9.8361 -5.1788 0.8749 -0.0161 3.2377 -0.7160 0.7336 1.0085 1.0460 -0.4326 8.9434 -0.3226 -0.5279 1.4155 -1.7413 6.1944 0.6256 4.5121 1.7308 0.7226 2.6591 3.0610 0.6981 -0.3177 -3.6637 1.4778 1.6948 0.9247 -3.2955
-3.3673 -13.7246 -13.2333 3.9356 0.1985 5.1203 -10.8484 12.8775 0.9968 2.1473 7.0389 15.2132 -0.0238 -1.1490 3.6129 -1.9188 -0.3460 -0.5004 3.2030 1.3753 -7.1401 -0.9069 1.0478 -1.3215 -2.4366 -1.7240 -1.0637 -0.3396 -2.0217 -2.3135
-6.0381 -9.5575 -9.8988 4.7197 -0.4852 4.6960 -15.2097 14.3693 0.2706 2.0162 10.8134 5.6444 -0.4346 -1.2071 5.5273 -1.5503 -1.4137 -0.4976 2.6756 1.6829 -3.6176 -0.8835 0.8017 -1.6891 -0.8788 -0.8407 -0.8117 -0.3623 -2.0577 -0.1205
-2.8382 -1.4196 4.9001 1.1504 -0.7570 2.3220 -6.1740 -0.3855 -0.7553 0.7180 5.3036 -4.3193 -1.1524 -1.4356 4.6054 -1.5296 3.5582 0.3716 3.1731 0.9322 2.8242 1.9134 2.3848 -0.8834 1.8643 -0.8356 1.5006 1.7112 1.6369 2.2725
1.3409 3.9840 12.2031 -2.4427 -0.6005 -0.4645 6.1776 -11.2588 -1.3895 0.0310 -4.2190 -2.4280 -2.2645 -1.9413 1.3843 -3.8737 4.3418 0.1782 2.8199 -1.7127 1.6308 2.3530 3.3937 -1.7896 1.4135 1.3407 2.9630 2.2148 3.8797 2.7185
3.2725 6.1365 9.9716 -3.3744 -1.3536 -3.1658 13.4143 -8.0368 -1.6393 0.0027 -11.3091 1.7621 -3.6692 -1.8420 -0.9231 -5.4897 0.0166 -0.5393 1.9999 -3.1447 -1.6904 0.8828 3.7860 -2.6590 0.1263 6.7880 4.5944 2.4553 4.2174 3.4581
3.9965 4.9339 8.2176 -3.5898 -2.7607 -2.9305 13.2192 -2.6413 -1.5783 -0.1210 -11.0478 -4.5349 -4.1597 -1.1432 -0.3776 -3.2143 -0.1482 -0.0009 2.2824 -1.5125 0.8661 1.4608 4.5817 -0.5232 1.6983 12.3838 7.7897 5.7513 5.9718 6.0610
2.9665 -1.3852 5.9213 -1.7619 -2.9687 2.1336 5.4430 0.9772 -0.3784 0.2260 -2.7195 -6.7972 -2.3008 -0.6804 1.7206 -0.2921 4.6625 0.9880 2.7279 0.2217 4.4102 3.3441 4.6731 2.2705 3.7332 12.8431 9.2100 8.9761 7.6031 7.2121
1.1310 -7.4634 6.0455 3.4872 -1.7456 7.1673 -2.2539 5.7518 1.7111 1.0587 5.6603 10.0804 0.4071 -0.6509 3.5201 -0.3762 6.6878 0.8848 2.3781 1.0790 3.1632 3.5538 3.6898 2.9120 3.6233 8.9460 7.4339 8.4386 6.9466 6.0373
1.7326 -6.8532 15.3183 7.2924 -0.7010 7.0129 -2.2600 7.0438 2.8596 0.9353 7.2991 21.4845 0.9384 -0.4732 4.6831 0.1155 4.6896 0.6386 2.7219 3.7122 2.4599 3.2768 3.6216 3.2055 4.0299 8.5346 7.4586 7.4313 7.1268 6.6192
3.2755 -4.4321 15.7833 7.0890 -0.4638 4.0482 -0.3241 9.4617 2.8002 -0.5352 5.5845 11.1350 0.5929 -0.0835 4.8792 5.0664 3.7159 1.2584 4.0082 6.5912 5.6942 4.4845 4.3944 4.2369 6.0963 11.8616 10.1782 8.2949 9.2289 9.1690
0.9373 -5.9560 -6.7661 5.6559 -0.6166 3.5239 -4.6436 19.4983 2.4301 -1.8224 5.5282 4.1493 2.0649 -0.2090 4.1890 8.3343 4.7582 1.3834 4.4131 6.3490 6.5388 5.4494 3.9294 4.2196 6.0286 10.7937 9.8263 7.9229 9.6624 9.1773
-4.0346 -6.2807 -19.9795 2.6363 -1.0207 5.6422 -10.6241 19.2775 1.1577 -1.7025 6.7396 4.1848 2.4902 -0.8492 4.2816 2.5350 5.5336 0.2296 4.0467 5.0500 3.9815 5.0400 3.0150 3.6462 2.8783 6.3208 6.9704 6.3374 8.4418 6.0828
-4.7776 -2.5253 -0.5210 -2.0811 -1.0352 6.0350 -9.6495 -0.6159 -0.6568 -0.8317 6.7688 -6.9908 -0.9384 -0.9727 5.4805 -6.3400 5.1023 -0.9326 4.1935 4.7504 4.1468 4.4382 3.3768 4.0943 0.6774 4.6703 6.8375 6.2022 7.6970 3.4543
-0.7485 -1.1663 13.4152 -3.6127 -0.1824 3.0267 -3.1928 -12.7096 -0.8237 -0.6684 3.3833 -11.0377 -4.7459 -0.5123 5.5918 -7.9398 1.8564 -1.9716 3.9437 2.9990 4.2649 2.3926 3.2269 3.6714 0.4127 2.1415 6.3282 4.5818 4.8661 2.1169
0.3699 -2.7740 -3.1570 -1.9749 0.2398 0.4789 0.7946 -3.8820 -0.0608 -1.7197 -2.2125 3.1004 -5.9442 -0.7735 3.7665 -4.7080 -3.5721 -3.9500 2.1178 -0.8184 -1.3077 -2.1732 0.5472 0.6260 -1.3850 -4.1961 0.9935 -1.3741 -1.3993 -0.4685
-3.1835 -0.4749 -13.1610 -2.3626 -0.6173 0.6973 -0.7363 2.5431 -0.7260 -3.2007 -3.8439 3.7492 -5.3145 -1.7716 1.9060 -4.4683 -4.5854 -5.4839 0.2035 -3.3298 -5.7451 -4.7965 -2.5496 -2.2348 -4.5722 -7.0428 -3.5582 -6.3747 -5.9408 -4.4420
-4.3000 4.3314 0.9829 -3.5403 -1.4877 0.6498 -2.5724 -1.5251 -1.4238 -4.0720 -1.1300 -9.2146 -3.0377 -1.7735 1.1919 -5.5104 0.0458 -4.3350 0.1579 -2.5683 -3.0136 -2.4488 -2.9674 -1.8623 -4.8092 -4.4345 -2.2307 -5.6833 -5.1056 -5.9863
-1.2808 3.1906 7.4619 -2.0441 -1.5168 -0.4873 0.7063 -2.5992 -0.3942 -4.1258 -2.0140 -2.9501 -0.5365 -0.6039 0.2895 -4.1672 1.2465 -2.1572 0.9497 -0.9572 -0.9982 0.0313 -1.5353 -0.3567 -2.6026 -3.4894 -0.0548 -3.2844 -2.1517 -4.3211
-0.0130 -5.4121 -1.1711 -0.6193 -1.2926 1.1836 4.4441 -1.6466 0.3910 -3.5222 -5.6491 9.9955 -0.9267 0.3401 -1.1171 -4.6264 -3.7033 -2.1313 0.4284 -1.6473 -5.0784 -1.4345 -1.1553 -1.2586 -2.8311 -5.6764 -1.8268 -3.6269 -1.0849 -3.7456
-1.8285 -13.7899 -2.9309 -1.1632 -1.5788 5.0459 0.9146 -3.0764 -0.0869 -2.4807 -3.4638 1.3977 -2.4357 1.2767 -0.1588 -8.7076 -6.3137 -3.2134 -0.3471 -2.4864 -7.9544 -3.3323 -1.5634 -2.7919 -4.5250 -7.3235 -4.6163 -4.6050 -1.1991 -4.6723
-2.2465 -12.9999 2.0488 -1.1304 -2.7351 4.7615 -4.1611 -0.8815 -0.0582 -2.4005 0.3686 -9.6178 -0.9347 2.6018 3.6235 -10.1830 -3.2216 -2.3529 0.7930 0.6752 -4.5245 -2.0811 -0.4411 -1.2324 -2.8721 -7.9193 -5.2021 -3.6772 -0.1105 -2.8484
-0.3209 -2.2693 4.3973 -0.3085 -3.7055 -0.2308 -0.6531 1.5318 0.5075 -4.0756 -2.8516 0.0024 1.4973 2.7159 5.1842 -6.4399 -0.4513 -0.4654 2.3216 4.7965 -0.3882 -0.2176 1.4952 1.5709 0.6192 -7.3572 -4.7770 -2.2961 1.9901 0.9696
0.2643 7.7551 6.5310 -0.3969 -3.0041 -3.3933 5.2744 -1.9175 0.4168 -5.1345 -6.6006 11.4678 1.2105 1.4828 2.2668 -2.6242 -0.7604 -0.2780 1.9647 4.0704 -1.1586 -0.4925 1.9245 1.8182 1.3440 -5.5947 -4.4859 -1.8616 3.4288 2.2217
-1.4125 7.0636 4.9770 -0.4328 -1.8900 -2.6558 3.1828 -2.1387 0.5189 -3.7928 -3.9764 1.8832 0.8326 1.1383 -0.2925 -2.5692 -0.0264 -0.9703 0.8603 0.3940 -3.6955 -0.9121 1.2124 0.2200 -0.3789 -5.1600 -3.9583 -2.2324 2.9918 0.5762
-2.2568 0.2882 -1.4664 0.3955 -2.2664 -1.2590 -1.6696 3.5139 1.1537 -1.9779 -1.3280 -13.2756 2.2537 1.6798 0.6203 -4.4456 2.4055 -1.0552 0.1862 -1.3594 -3.1577 -0.1648 0.4838 -1.3912 -1.8105 -6.5915 -4.3302 -3.8041 0.3752 -1.3772
-1.3213 -0.6526 1.1342 0.3965 -2.4986 0.6051 -1.7067 1.7049 0.7454 -0.8692 -0.9300 -5.7656 1.6338 1.1893 2.0721 -4.6414 2.2097 -1.9775 -0.8150 -1.3709 -1.8271 -0.5001 -0.6039 -2.8283 -1.7538 -7.6536 -6.3624 -5.8563 -2.1208 -2.0623
-0.6502 4.5125 11.7360 -0.2645 -0.9834 3.0600 -0.4804 -6.0240 -0.0491 1.0020 1.6632 11.4230 -0.4638 0.0600 1.7410 -2.2291 1.2705 -3.4821 -1.6560 -1.1298 -2.2104 -1.3321 -1.3439 -2.7863 -0.3286 -7.3449 -7.1842 -5.7503 -1.4747 -1.2287
-0.3546 4.2741 6.8544 0.8599 0.0210 2.6762 -1.2888 -2.8745 0.9245 3.5504 3.0814 4.8088 1.1991 -0.3315 1.0702 0.8937 4.4145 -2.7352 -1.0737 0.0479 -0.3804 0.5272 -0.4820 -0.4898 1.1626 -5.0551 -4.7809 -3.2320 0.8725 -0.0490
0.6694 -5.6904 -14.4374 2.4891 -0.6924 0.9261 -2.6948 6.7904 2.1759 5.0457 0.9704 -14.7381 3.6008 -0.3613 1.4431 2.8043 7.1107 -1.1729 -0.0200 1.7637 3.4572 2.8254 0.1948 1.3676 1.3211 -1.6866 -2.5992 -1.8614 1.0497 -0.0645
0.9250 -15.1475 -22.0343 1.1288 -0.8435 4.0615 -4.3250 3.3977 1.0469 5.4489 1.6100 -13.5279 0.3789 -0.4483 1.6993 1.7059 4.1251 -2.8628 -0.3886 1.3481 2.0551 1.0340 -1.8735 0.0279 -0.4311 -1.9947 -4.5711 -4.2910 -1.4488 -1.9884
-0.8197 -13.3461 -6.3051 -1.8814 -0.1613 9.2992 -4.3408 -10.0978 -1.1059 5.6025 4.2405 4.9135 -4.6833 -0.1318 0.5501 -3.5964 -0.4104 -6.0898 -1.8463 -1.4889 -3.6257 -2.4302 -4.7326 -2.9331 -3.3207 -6.0830 -8.2270 -7.8199 -3.6488 -4.3631
-2.0812 -0.7359 8.1807 -3.2922 -0.8308 7.2251 -0.0902 -15.8541 -1.7691 5.2931 1.2607 14.7245 -5.2794 0.5082 -0.5744 -9.3758 -2.4966 -6.0106 -2.1344 -2.1777 -4.0382 -2.1644 -3.9648 -3.2520 -3.9358 -4.4948 -6.8302 -6.4175 -2.1359 -2.7694
-0.7511 12.7724 7.6031 -3.5403 -2.3313 -0.9671 5.6556 -12.4630 -1.2722 4.1261 -4.9710 8.5098 -3.3119 1.0669 -0.3942 -8.8401 -2.3187 -3.1737 -0.6646 0.9470 2.1204 1.0648 0.0076 -0.2963 -0.3086 5.1455 0.6575 0.2999 2.6521 3.3364
1.1190 15.4637 2.6312 -3.7001 -2.5948 -4.9519 7.7678 -9.7380 -1.0163 2.5145 -6.6898 -1.2970 -2.9311 1.2983 -0.4724 -2.2768 -0.6200 -1.7925 0.5072 2.4878 6.8088 2.2369 1.9239 1.6779 3.1231 8.8518 5.5472 4.0044 4.9148 6.0432
0.7964 6.3336 0.2186 -3.6626 -2.1670 -2.4687 5.1588 -10.7078 -1.3252 1.3558 -4.3255 -4.7862 -4.3616 0.7118 -1.1967 1.6467 -0.5430 -2.7483 0.2821 0.6802 5.3272 -0.3227 -0.1494 0.6025 1.6536 -0.7803 1.1276 -0.4405 1.0526 0.6005
-0.9499 -2.3258 -2.1943 -3.7872 -2.4502 -0.0500 0.0901 -11.6310 -1.5657 1.3572 -1.6719 -6.2592 -5.1904 -0.4842 -0.7534 -1.2837 -2.6945 -3.4840 -0.1701 0.3590 0.1355 -3.5569 -2.5582 -0.7658 -2.2323 -10.6199 -6.5751 -6.8799 -4.5062 -6.2559
-1.4957 -4.3125 -4.2082 -3.5012 -2.6152 1.0790 -4.3796 -7.9208 -0.9956 2.4513 1.5290 -6.6692 -3.6306 -1.0137 0.4719 -4.7049 -2.5120 -2.7784 -0.1769 1.5385 -3.5769 -4.6714 -2.6772 -0.7341 -3.8758 -9.8465 -8.3445 -8.0850 -6.0781 -7.8305
-0.7842 -7.0740 -4.8719 -2.3032 -1.5768 4.8677 -6.3286 -2.0687 -0.0359 3.7123 5.0079 0.0143 -2.1016 -0.6701 0.7648 -3.5802 -0.9104 -2.3016 -0.4108 -0.0965 -3.4204 -4.5861 -1.8027 -0.9021 -4.0353 -5.1482 -5.5471 -5.8250 -4.5670 -6.9009
-1.6247 -12.9934 -6.6892 -1.9762 -0.7682 9.2051 -7.6110 -3.2858 0.1083 4.2199 6.7333 2.8309 -3.7038 -0.6205 0.5687 -2.5656 -2.3550 -3.2351 -1.0171 -3.3272 -2.5018 -5.1535 -1.4572 -2.3120 -5.9839 -4.8831 -5.0478 -5.4515 -4.0164 -7.7993
-4.9190 -14.9573 -8.3233 -2.7792 -1.6207 9.1953 -9.8164 -11.2179 -0.5545 4.0294 6.6705 -9.2600 -5.8584 -0.8235 0.5944 -5.8425 -4.2105 -3.8931 -1.0613 -4.5387 -4.2590 -5.7317 -1.5393 -3.8470 -8.8047 -7.6288 -7.2794 -7.5180 -4.6931 -9.3741
-7.6151 -10.5913 -4.2449 -2.2882 -2.5032 6.0549 -8.5120 -14.2352 -0.8395 3.5627 4.2530 -18.0683 -5.3235 -0.2797 -0.4327 -9.0465 -4.4233 -2.9036 -0.4209 -4.8747 -7.3553 -5.3652 -1.6931 -4.4741 -9.3241 -9.8676 -8.4954 -9.2559 -4.6147 -9.9664
-7.3199 -2.9699 1.5988 -1.3787 -2.0050 2.7701 -2.2494 -9.2624 -0.4249 2.6537 -0.7407 -9.4962 -4.0122 0.5919 -2.8985 -7.4315 -6.4692 -1.6067 -0.2933 -5.9238 -8.6340 -4.7790 -1.4715 -4.1761 -7.7412 -11.1518 -8.0422 -8.9303 -3.4234 -9.7981
-5.3117 4.0396 -1.0647 -2.9014 -1.5787 0.1784 0.7314 -4.5092 -0.0884 1.4884 -3.4696 0.3235 -3.2290 1.0543 -4.0406 -3.6281 -7.5817 -0.7750 -0.5968 -5.2941 -6.5855 -3.6165 -0.2388 -2.8415 -6.1975 -10.5124 -6.5269 -6.1699 -1.1098 -7.7390
-3.5449 4.0478 -6.2345 -3.6097 -1.7885 -0.0428 -2.4805 -2.2748 0.2657 0.9866 -1.3538 -0.7656 -1.2676 1.6186 -2.1798 -2.9386 -2.8056 0.2980 -0.1791 -2.4882 -2.7715 -1.1930 0.9921 -1.3862 -5.5629 -7.7175 -4.8144 -3.4212 0.9084 -4.9895
-2.9472 -3.4348 -2.1975 -0.0468 -1.3772 2.0133 -4.1249 -0.1840 1.1712 1.0539 0.3620 -3.9326 0.1493 2.3945 -0.0514 -4.9055 0.4746 0.6669 0.2341 -1.3453 -2.1918 -0.3142 0.3573 -1.8378 -5.9242 -7.1862 -6.0661 -4.9271 -0.7367 -6.1625
-4.2863 -7.8839 0.1267 1.3814 -0.7353 2.8802 -2.9695 -3.5385 1.2792 0.8955 -0.9427 -3.5460 -2.2786 2.6758 0.0261 -5.2977 -4.6508 -0.4414 -0.2018 -2.3282 -6.8125 -2.8340 -0.9804 -3.3817 -6.6445 -11.4729 -10.0585 -9.2829 -4.6101 -10.1338
-6.3130 -5.2230 -9.6254 -3.7067 -1.0593 1.2441 -4.9228 -13.3921 -0.3777 1.0746 -1.5896 -8.0212 -5.2357 2.6966 -0.3182 -5.6367 -8.3606 -0.8313 -0.1255 -1.8674 -10.7060 -4.4845 -0.4520 -3.4064 -6.9144 -15.1924 -11.3240 -10.7989 -5.6362 -11.4537
-5.6420 -3.8907 -13.8074 -7.4949 -1.9518 -1.0091 -6.9428 -18.3175 -1.6243 1.9771 -1.4483 -20.5537 -3.7449 3.2953 0.1509 -9.0030 -3.1832 0.4309 0.9609 -0.3218 -8.7993 -2.0388 1.0712 -2.5201 -6.7059 -13.7480 -8.6172 -9.1748 -4.3183 -10.2784
-2.1927 -6.0585 -2.4489 -5.4332 -2.4236 -1.8042 -2.6361 -14.5178 -0.9914 2.3088 -3.5498 -22.3601 -1.0133 4.3638 0.3543 -9.7882 -0.1978 0.8624 1.6194 -0.1647 -5.2561 0.4340 1.3080 -2.3204 -5.4266 -10.8399 -6.1664 -7.6448 -3.5710 -8.6272
-0.6209 -6.2769 4.1230 -2.7636 -1.9939 -0.0785 2.0254 -9.3646 -0.1866 2.3540 -5.0127 -0.8974 -2.0203 5.0794 0.5282 -4.2065 -6.8966 -0.2761 1.6468 0.2201 -6.3449 -1.0715 0.5802 -1.9567 -2.7510 -10.9317 -5.3753 -6.4254 -2.2463 -5.1866
-3.6407 -6.4119 -6.2897 -1.3249 -1.2681 2.4168 -1.6447 -5.1215 -0.3146 3.8815 -1.5534 14.4058 -3.7761 4.9498 1.3928 0.0988 -12.3046 -0.7249 1.8777 1.9634 -10.0640 -3.8585 0.1885 -1.1385 -0.6550 -11.6206 -4.4828 -5.3093 -0.1721 -1.5504
-7.8138 -9.2432 -19.1554 0.4057 -1.5662 2.6976 -8.2033 -0.7632 -0.4408 5.2644 2.5893 -4.4747 -1.7533 4.2077 1.2074 -0.9078 -7.9728 0.2606 2.0363 2.3300 -9.6317 -3.6080 0.4846 -0.8080 -0.4318 -8.8506 -2.7733 -4.7845 0.3810 -1.6521
-7.7868 -8.3500 -18.8854 0.2492 -2.4628 1.0891 -8.2466 1.5278 -0.1246 4.0345 2.4594 -26.7151 1.4707 3.5712 -0.2443 -0.4304 -1.5256 1.3165 1.9840 1.4111 -4.4138 -0.7218 1.5311 -0.0865 0.0979 -4.1418 -0.2150 -3.1979 0.5339 -3.0885
-2.9771 -1.0961 -5.8464 -2.2266 -2.2679 -0.0186 -4.5270 -1.1578 -0.1199 2.4396 2.5554 -15.0654 0.9197 3.3995 0.1305 4.5879 -1.1773 1.5770 2.4390 2.4040 0.2167 1.1399 2.6878 1.8269 2.8033 -0.9248 2.6526 0.1079 2.6001 -0.3620
1.2382 3.6767 6.4149 -3.5468 -1.2374 0.7327 -3.2653 -7.8955 -0.7487 2.7887 5.9581 5.7516 -2.5098 3.2930 2.2827 8.6129 -4.0501 1.0393 2.9733 4.2920 1.8494 0.1691 2.5336 2.9588 5.6461 1.1570 3.8422 2.4709 4.9186 4.9176
0.3663 1.0563 6.8914 -2.5605 -0.6495 3.6401 -3.2155 -10.0513 -1.0786 3.2117 7.0033 1.2580 -3.7511 2.9185 3.1689 8.5351 -4.8532 0.1729 2.4306 4.4412 1.4933 -2.2495 0.8971 2.1516 6.0909 2.1907 2.2800 2.3261 4.8702 6.5334
-2.8146 -2.5236 1.9980 -1.4217 -0.3695 6.7524 -3.0765 -4.7043 -0.8649 2.8992 4.8315 -8.8540 -2.5100 2.2817 3.1735 7.3059 -4.3585 -0.5884 1.0876 4.2116 -0.9967 -4.6503 -0.9717 1.1427 4.7900 -0.5803 -0.5772 0.2677 2.4258 3.4812
-3.1714 -2.3307 2.0500 -1.6878 -0.0800 6.8344 -4.4708 -3.1484 -1.3717 3.0888 5.3247 1.1465 -3.1477 1.2330 3.1617 6.2963 -4.9072 -1.5496 -0.1951 3.7976 -4.3777 -6.8163 -2.5247 0.4827 2.9549 -5.8575 -3.0804 -3.2698 -0.8183 -0.5764
-1.4713 -1.4220 4.4702 -1.4622 -0.2881 4.0077 -4.7424 -5.8388 -1.8357 2.7536 6.7298 11.1999 -4.3366 0.2035 0.9787 3.4191 -4.9615 -2.2734 -1.1993 0.3200 -5.1024 -7.6372 -3.5619 -1.0364 0.5590 -7.6281 -4.8446 -6.2726 -2.6293 -3.8584
-1.1197 -2.3125 2.5588 1.4075 -1.0409 1.4454 -1.2426 -0.6310 0.0689 1.3193 3.5318 -0.4970 -1.3266 0.4330 -2.0735 0.1647 -2.5838 -1.1538 -1.2258 -3.9544 -2.5855 -5.5845 -2.7620 -2.0512 -0.7938 -4.1213 -5.0585 -5.3067 -1.1533 -5.1563
-1.4072 -3.7755 -6.5663 2.9572 -1.7601 0.9724 1.1372 5.5232 2.3660 1.3154 -0.5668 -14.6816 2.0040 1.8828 -1.4216 0.9006 -0.1481 1.1997 0.2874 -2.8391 0.5547 -2.1873 -0.0240 -0.3640 0.6596 0.3289 -2.7820 -0.7528 3.3661 -2.0611
-0.7476 -4.3743 -17.7887 -0.6992 -2.2489 1.8918 -1.1935 -0.6816 1.3638 2.9354 -0.2852 -9.1746 -0.2364 2.8949 1.3079 3.9190 -1.0916 2.0032 1.5766 2.1360 1.9549 -1.0300 1.6165 1.5840 2.0759 1.9494 -0.3498 2.1172 7.5336 2.3414
-0.7867 -4.0474 -16.5008 -3.5314 -2.7933 2.4696 -3.7782 -7.8777 -0.7844 3.0859 1.5649 2.3198 -3.4162 3.0568 1.1775 3.2169 -3.8565 1.2032 0.9036 3.6698 1.0024 -2.0211 0.3770 0.4296 0.1160 1.1032 -1.3604 -0.2799 7.2142 0.9193
-2.2327 -4.1656 -2.5544 0.1687 -3.3309 1.8660 -3.8852 -1.9920 -0.1167 1.8914 1.6931 0.7538 -1.6227 3.6561 -0.0396 -1.3775 -3.6874 1.2384 -0.0577 1.4470 -0.1273 -1.3499 -1.0959 -1.7522 -2.4017 -0.4921 -4.2456 -4.5110 3.6045 -4.3318
-2.4378 -4.2290 4.3765 4.4531 -3.0188 0.8058 -3.0438 7.8525 1.7782 1.8580 0.7504 -3.2353 1.5353 4.7818 0.8311 -4.7049 -0.5337 1.9899 0.2039 -0.0753 0.2184 0.8882 -0.8031 -2.3536 -1.8286 -2.8168 -4.7479 -5.1961 1.9577 -4.9756
-0.3779 -1.6256 1.5210 2.8834 -1.6609 -0.0155 -0.0772 7.0532 1.6222 1.8148 -1.1102 2.4010 0.7349 5.0768 0.6970 -4.2887 -0.0516 1.3187 -0.1086 -1.3656 -0.1193 0.0288 -0.5695 -3.0315 -0.2489 -5.1776 -3.2455 -3.1345 2.4860 -2.0716
0.8908 1.4756 2.8950 -1.7293 -0.9556 -0.6109 4.1700 -3.5540 -0.1881 -0.2280 -3.2416 2.3620 -3.0140 4.3641 -1.9291 -1.8000 -4.5579 -0.4663 -1.5363 -3.3923 -2.0012 -3.8815 -1.2719 -4.0218 -0.1691 -5.2303 -2.6614 -2.4975 1.4567 -2.5395
-0.4221 1.4755 5.7917 -4.8713 -1.9166 -0.9984 4.6115 -11.0766 -1.8843 -1.9687 -3.8563 -8.7734 -5.5659 3.8841 -3.0872 0.3635 -9.1063 -1.1357 -1.9186 -3.3675 -2.8913 -5.6061 -1.2495 -3.1492 -0.3018 -3.7186 -3.3519 -3.7471 -0.4728 -5.1856
-1.6643 0.2390 2.7059 -5.6697 -2.5372 -0.5888 1.5512 -8.1264 -2.9173 -0.9722 -2.8030 -7.3738 -5.0471 4.3052 -1.9792 1.3829 -9.3807 -0.2411 -1.1848 -1.7771 -2.6357 -4.3174 -0.3093 -1.7219 0.0977 -3.8021 -4.8078 -5.1571 -0.7955 -5.4256
-1.4901 -2.9359 -0.0227 -4.3793 -1.3566 2.0130 -1.4278 -2.1953 -3.1522 1.0119 -0.1884 6.3835 -2.7115 5.0322 -1.1476 2.0264 -6.3252 0.8625 -0.9744 -1.8684 -3.1009 -3.3626 0.4168 -2.1933 0.0568 -5.5284 -7.3500 -6.2480 -0.6270 -4.6674
-2.5364 -10.3389 -1.2689 -1.7732 -0.2219 6.1140 -4.6348 -0.5515 -2.4915 1.8001 2.9965 5.4858 0.0527 5.3227 -0.4209 2.1527 -2.1435 1.6935 -0.8912 -2.2514 -3.0897 -2.5789 1.2900 -3.0802 -0.2699 -6.4186 -9.5073 -5.8310 -0.5714 -4.8116
-4.8043 -13.5304 -4.4747 0.7670 -0.0956 7.4442 -6.5538 1.2693 -1.4443 1.9415 3.3233 -1.4215 2.6543 5.5582 0.5641 1.0123 1.3462 2.8697 0.0934 -0.1813 -0.7145 0.0178 2.9597 -2.0414 -0.0815 -4.5789 -8.0046 -2.0492 1.3481 -3.5341
-5.0119 -5.4180 -2.1484 2.4574 0.7556 3.8369 -3.5121 5.9062 -0.8296 1.9729 -0.0261 7.7467 3.7746 6.4369 0.2127 0.2331 2.3276 4.1228 1.1482 2.1067 2.2259 2.8405 4.3822 0.3353 0.4282 0.1125 -2.9282 2.9242 3.6684 -0.9389
-3.3162 3.9965 6.3513 3.2548 2.1801 -1.4794 1.8204 7.9482 -0.8161 0.8982 -3.7905 12.8868 3.0158 7.1574 -1.1570 0.7742 1.6948 4.3370 1.0422 1.2529 3.8820 3.6078 4.3827 1.9610 0.3535 5.0460 0.7347 3.8712 2.2512 -1.1816
-1.5797 3.8104 8.4744 3.3275 2.2916 -4.0891 4.3543 5.2961 -0.9368 -0.9265 -5.6213 1.5338 1.7511 6.5974 -1.4911 0.5493 2.2287 3.3076 0.2535 -1.3972 5.5802 3.2085 3.6248 1.7161 -0.2197 6.4926 -0.3323 0.6175 -1.0850 -3.6146
0.9454 -2.5876 3.1726 2.2253 1.7993 -2.0367 4.3662 1.6092 -1.1581 -1.2818 -5.0636 0.8007 0.0692 5.2830 -0.5254 0.1844 3.2511 1.6605 -0.0807 -2.2061 6.2356 2.5207 2.9466 -0.0279 0.3244 3.0555 -3.9553 -2.0422 -1.1830 -2.8889
3.6477 -8.3348 0.0298 -0.3022 1.9889 2.6502 2.3072 0.1259 -1.8283 0.2187 -1.4053 12.7583 -2.4004 4.0069 0.7813 2.9526 1.6210 0.0703 -0.2124 -0.6255 2.4709 0.5468 1.5604 -2.1028 2.1936 -1.9243 -6.3346 -2.8152 0.3434 0.1748
3.7560 -11.3352 0.9989 -1.8055 1.9905 5.5065 -3.2491 1.3179 -2.4741 1.4710 5.0472 12.4153 -3.7304 2.8212 1.7307 7.3056 -1.9502 -0.4743 -0.8372 0.8870 -1.6870 -1.5787 -0.5224 -3.2910 3.3431 -1.7498 -5.0580 -3.1728 -0.6314 0.4546
1.7267 -9.4897 3.3124 -0.1946 1.8366 5.1932 -7.0323 2.5598 -2.3643 1.4238 9.0367 4.3482 -2.7265 2.2806 1.4922 8.3947 -3.1124 0.2552 -1.4968 0.9889 0.9170 -1.1131 -1.3596 -3.3418 3.2691 5.0452 -0.6515 -2.0053 -1.9812 -0.5542
0.9011 -1.6989 5.3238 1.5326 2.6361 3.1051 -1.9292 1.1588 -1.9305 0.9999 4.3470 2.9272 -1.1611 2.8700 0.5021 5.7796 0.0011 0.7631 -1.6387 1.3331 6.9115 0.8649 -0.4072 -2.9248 3.4924 10.6008 3.0718 1.0077 -0.6830 1.5152
3.0320 6.4860 6.3358 0.5648 3.5473 -0.8991 6.5154 -1.5112 -1.7412 0.7196 -4.1099 2.6143 -0.7434 3.9464 0.5262 3.9282 3.4752 0.2297 -1.4750 3.4511 8.7440 1.2123 0.9254 -2.0759 4.3294 9.9911 4.5762 3.7405 2.0785 4.9495
6.3271 8.3584 6.3600 -0.8104 3.5488 -4.9563 7.7225 -2.8359 -1.5256 0.1988 -5.0429 3.1172 -1.5174 4.9140 1.0600 5.8616 2.7258 -0.0325 -1.1264 5.5519 8.0222 0.3507 2.0415 -0.7533 4.9929 9.2231 6.2708 5.7980 5.3770 6.2741
6.4900 5.4144 1.0233 -0.5932 3.2410 -4.5161 3.0577 -1.1182 -1.2739 -0.5300 0.0260 6.2398 -1.9797 5.5237 0.2424 8.3173 1.4326 0.7868 -0.7137 5.1522 8.7950 0.5136 2.8165 -0.2310 5.1565 11.8280 7.2954 6.9330 8.5200 6.2260
2.5736 3.0241 -9.1840 0.5793 2.6964 -0.6433 0.0062 5.4042 -1.0917 -0.9157 1.3966 1.3876 -0.1376 5.2603 -1.0025 6.6284 5.6783 1.4055 -0.9897 2.6352 8.7590 1.3402 2.2572 -1.2759 4.2742 11.6463 4.6051 5.0610 8.2958 5.8198
0.2854 2.3351 -9.0620 1.7411 1.7611 1.0151 0.3248 11.7103 -0.7924 -0.8033 -0.4894 -6.0077 2.3051 4.4280 -1.2152 3.6452 9.5926 0.6166 -2.1113 0.0771 6.6951 1.1565 0.3394 -2.7468 2.3110 7.6640 1.6695 1.6454 4.6865 3.9246
3.2360 2.3332 5.1359 1.0728 1.6652 -0.0561 3.1872 8.1417 -0.8904 -1.1113 -0.8756 0.9711 0.8461 3.9280 -1.5804 4.7195 4.1792 -1.1179 -2.9991 -1.2721 5.8744 -0.4030 -1.3163 -3.5995 1.0527 6.5227 3.1594 1.2643 3.2345 1.9304
6.3599 2.6355 14.9620 -1.2658 2.6463 -0.1721 6.5616 -1.1647 -1.5250 -2.5025 -0.6884 13.1824 -3.8546 3.3812 -2.6164 6.6284 -5.1864 -2.9183 -3.3828 -2.0422 5.7856 -2.9677 -2.2799 -4.0957 0.9631 6.2648 4.7033 2.6714 4.7434 2.1812
4.6810 3.0499 12.3770 -2.0040 2.6470 0.6563 4.5836 -3.4717 -1.6001 -3.2133 0.8028 13.8205 -6.1323 2.4720 -2.4367 4.3600 -8.2544 -4.0797 -3.8102 -3.2163 3.5325 -5.2640 -3.2971 -4.2580 -0.0148 1.0904 1.7250 1.0641 3.3117 2.0256
0.8475 3.5977 4.8386 -1.4412 1.0569 -0.0927 -3.3098 -1.1159 -1.3198 -1.8351 5.2123 7.3137 -4.3619 2.4752 -0.9167 2.0382 -6.0011 -3.6978 -3.6260 -4.0298 1.7676 -5.1890 -3.6049 -3.4478 -1.5413 -2.8285 -0.8991 -1.7779 -1.2039 -0.4361
-0.3087 3.1890 -2.4004 -2.3983 0.1602 -1.6733 -6.7611 -3.6445 -1.9578 -1.1056 6.8440 1.5066 -2.1312 3.3985 -0.8105 4.1762 -4.4750 -2.3375 -2.7953 -4.2945 3.0274 -3.5904 -2.9144 -2.3122 -1.3716 0.1421 -0.4800 -2.4272 -3.7452 -1.5564
1.8985 2.5459 -1.1448 -3.3336 0.7703 -2.7971 0.7842 -8.4580 -2.7481 -3.2446 0.8805 -1.3987 -1.4868 3.4548 -2.8496 6.3461 -4.4868 -1.8370 -2.8420 -5.1293 4.0663 -3.3784 -2.9518 -1.8542 -0.4298 2.8217 -1.7301 -3.1551 -4.5893 -0.9620
3.9783 6.1195 9.9505 -2.3985 0.9720 -5.0540 10.3692 -9.4557 -2.4107 -5.2940 -6.9097 1.9452 -1.2320 3.0059 -4.0691 4.4846 -4.0593 -1.5703 -3.0523 -4.9021 4.2441 -3.0846 -3.1662 -0.5418 -0.0648 2.4174 -3.1735 -3.6033 -4.6789 -1.8592
2.4556 11.5136 12.0866 -1.2933 0.4795 -7.3681 10.1218 -6.8240 -1.6403 -4.5619 -8.2699 6.3677 -0.0328 3.6127 -2.8857 1.7645 -2.2587 0.4494 -1.7575 -2.3483 6.5928 0.3010 -1.5410 2.3709 0.5377 4.7450 0.2112 -0.5028 -2.1831 -2.5532
-0.9762 8.7371 -1.9773 -0.2472 0.6162 -5.4945 2.3015 -2.0429 -1.0032 -2.5909 -3.7320 4.9608 1.9334 4.0605 -1.3146 0.8855 0.5100 2.8361 -0.7366 -1.3705 8.5228 3.7370 -0.0194 3.6688 0.6530 6.7140 2.9720 1.6572 -0.7807 -1.4335
-1.8054 -1.2947 -13.2108 1.4115 0.4822 -0.7473 -2.2109 2.4902 -0.1386 -0.8473 -0.1858 7.1125 3.2995 3.1337 -0.5071 1.3302 1.5779 3.0894 -1.1059 -2.9445 5.8636 3.1943 -0.6340 2.5827 -0.0614 2.6430 0.0375 -0.7519 -3.5187 -1.0701
0.0928 -7.1142 -11.6563 1.9925 -1.0222 0.5269 -0.9114 4.3551 0.3950 0.6907 -0.6733 15.2015 3.7503 2.6927 0.4348 3.8842 -0.1959 2.3163 -0.2563 -1.5184 2.1294 1.1756 -0.7747 2.8605 0.8322 -1.3580 -1.4372 -0.7543 -4.1619 -1.0864
1.7747 -5.9807 -5.1748 1.1528 -2.0440 -3.0113 1.0449 4.4803 0.0858 1.0458 -2.5422 8.7795 4.5381 3.5383 0.8207 7.4300 -0.8985 2.4259 1.7490 2.9294 2.3426 0.9833 0.6776 4.2489 2.5748 -0.5776 1.6127 3.1792 -1.1166 -0.5761
2.1000 -1.2994 1.8108 0.3125 -1.2638 -6.3810 2.3145 2.8221 -0.4141 -0.1212 -3.8557 -10.2073 4.9053 3.8226 -0.4537 7.6740 0.5854 2.4736 1.6927 3.7313 4.8446 1.0644 1.0130 2.9835 1.9323 -0.1167 1.5366 2.2205 -1.8988 -2.2801
0.8428 6.1225 6.3913 -0.8063 -0.4542 -6.3653 3.0203 -1.2267 -0.8912 -0.7850 -4.0628 -10.5531 3.0178 3.3989 -1.4700 5.4379 -0.0034 1.7406 0.4742 1.0917 6.0617 0.6238 0.5765 0.7124 0.7332 -1.5934 -1.5307 -2.5017 -5.2140 -4.3381
-0.7933 8.5937 5.6317 -2.0649 -0.5964 -4.1580 0.1848 -4.7263 -1.5282 0.6623 -1.3877 4.8279 1.0824 3.8268 0.0662 5.8561 -1.7459 1.8861 1.2233 1.1917 5.9438 1.9997 2.0499 1.2795 1.8318 -1.7446 0.2081 -1.6349 -3.3090 -2.1042
0.0654 -1.3149 5.0381 -1.7122 -0.0654 -1.1263 -4.8794 -5.7046 -1.5799 3.1091 3.3620 6.7684 1.9945 4.6229 2.7080 8.6792 -0.8606 3.1826 2.4970 3.4380 5.0756 4.1684 3.7544 2.6405 2.5608 -1.8039 3.8365 1.5585 -0.4097 0.4150
1.9529 -11.8411 5.0843 0.2999 1.2116 1.2936 -6.4523 -3.8042 -0.6248 4.0277 5.3934 2.4746 3.7216 4.2614 2.9450 9.5428 -0.5097 3.4582 1.3688 2.4595 3.1323 3.5667 2.7530 1.7063 0.9474 -3.7878 1.7997 -0.7862 -3.8009 -2.3464
0.5260 -8.3896 -1.4054 2.1025 1.0196 0.2768 -4.0963 1.6033 0.2777 2.9230 2.8028 8.8351 4.1496 3.3511 0.4710 8.0740 -2.0509 2.6484 -0.5865 -0.3736 2.1498 2.2353 1.2923 1.0277 0.6536 -4.3690 -1.1932 -2.7149 -6.6587 -5.0617
-1.6144 3.2700 -6.9277 2.0963 -0.1518 -3.7584 -1.2706 6.5624 0.1992 2.2643 -0.6290 11.4449 4.9481 3.6363 -1.0989 7.7809 -0.0644 3.0856 -0.2426 0.7072 4.8948 4.7796 2.7890 3.2747 4.2162 -0.0506 2.3102 2.9304 -0.9266 -0.4543
1.2939 10.1471 -1.0033 0.2064 0.3267 -6.4888 1.6725 6.2702 -0.4181 2.8220 -1.8124 6.2576 6.3969 5.0926 -0.3205 10.4194 4.2253 4.6360 1.7199 4.9662 9.4645 9.2310 5.6215 5.9662 8.6376 7.0754 8.0804 9.7353 7.5290 7.9809
6.2271 10.3750 5.8382 -1.3818 1.5583 -6.2402 5.4881 2.6690 -0.7330 2.0033 -2.4263 10.6879 6.1858 6.0661 0.0267 14.3615 4.1703 4.9013 2.5420 6.9764 11.7911 10.5983 6.3966 6.6307 10.6944 12.0063 9.6152 10.8867 10.8555 12.2953
6.1637 8.8688 4.3634 -0.7504 0.9924 -4.7640 7.5063 -0.2558 -0.6094 -0.2116 -3.5350 16.1215 4.3244 5.6542 -0.8510 16.9666 1.8412 3.4437 1.5929 5.9431 11.9184 8.9935 4.9408 5.8268 10.3580 12.3250 8.1829 8.5340 9.4209 10.7745
2.0816 7.2708 2.2415 0.6631 -0.1808 -2.8016 3.1660 -0.2404 -0.3939 -0.3353 -1.1648 2.4209 3.1848 4.3926 -0.4143 16.2835 2.3937 1.5617 0.0702 4.6615 11.4044 6.9816 2.4963 3.5476 7.9958 9.1824 6.0910 4.7104 4.6683 6.4028
-0.3770 3.5570 3.0224 1.0556 0.4430 -0.0178 -5.6025 2.5988 -0.2203 1.8813 5.9530 -13.5479 2.9267 2.8738 1.0888 12.5831 2.1587 -0.3041 -1.2401 3.4801 8.7356 4.3711 -0.6035 0.1724 4.4985 4.9485 3.1012 0.2201 -1.7388 2.3561
0.4440 -1.5897 4.5281 1.1700 2.1582 2.5291 -7.9673 2.4390 -0.1249 3.0567 10.0391 -7.2549 1.3341 1.3668 0.5638 9.0530 -3.0184 -2.0943 -2.2765 1.6190 4.1918 0.6859 -3.3533 -1.4232 2.6256 2.1230 1.1005 -0.9480 -4.1376 1.2841
3.1343 -4.1929 6.8308 1.2825 3.0039 2.6914 -0.3470 -3.0019 -0.3134 2.2322 5.7765 7.8755 -1.1506 0.5393 -1.8001 8.1714 -7.7472 -3.0428 -3.0468 0.4383 2.2340 -1.9836 -4.1849 -0.5465 2.7571 2.3082 1.9394 1.7918 -0.9578 3.0285
5.3406 -2.9731 4.6263 1.0012 2.7678 0.1524 6.3200 -5.0644 -0.5099 1.3333 -0.7626 11.8686 -1.6765 0.5226 -3.2011 8.3174 -7.6695 -3.1877 -3.8261 0.3899 2.6274 -2.8419 -4.1426 -0.6757 1.6688 3.3910 2.0980 2.3035 0.4752 3.5792
4.0227 -0.0354 -4.0129 1.9218 2.7100 -2.6311 6.1218 -0.6937 0.0317 1.2247 -3.7721 8.4257 -0.7601 0.1979 -3.7873 6.6154 -7.8959 -3.9563 -5.4442 -1.6077 -0.5786 -4.5480 -6.1222 -4.0037 -1.8377 0.7567 -2.8437 -3.2827 -5.3210 -0.2052
0.5537 1.4923 -9.4980 3.7125 3.6436 -3.3292 4.0979 1.0538 1.0303 1.6116 -3.9451 1.1977 -0.6946 -0.5609 -4.2713 4.0613 -10.1534 -5.3413 -7.2201 -5.6167 -6.6788 -7.2729 -9.2540 -7.6208 -4.8601 -4.7968 -9.3683 -10.0030 -12.8040 -5.3135
0.4221 0.1447 -6.4800 2.7261 4.7470 -2.3512 1.1723 -2.9609 1.1549 2.7599 -0.7869 -7.1373 -0.9992 -0.3624 -1.9117 4.1273 -8.7534 -5.3821 -6.1547 -5.2550 -8.4178 -7.1017 -9.0832 -6.4142 -4.1915 -6.3070 -9.5061 -9.7395 -12.2551 -5.1718
2.8905 0.0334 1.6406 -0.2891 4.6540 -2.3313 -3.1530 -6.3821 0.2060 4.1460 4.3068 -3.6747 -1.3088 0.7009 2.7614 5.7308 -5.5427 -3.9513 -2.2556 0.3931 -6.2497 -4.1983 -5.5262 -0.6040 -0.9601 -3.4139 -4.6698 -3.6647 -4.9341 -0.5522
1.8001 3.2516 8.0833 -1.0506 3.2783 -4.0549 -4.0344 -5.1657 -0.6017 3.8880 4.7130 5.0169 -2.3199 1.2261 3.4835 4.6708 -7.3996 -3.1591 -0.3874 2.0727 -6.6736 -3.4484 -3.5679 2.6441 -0.0946 -4.2347 -4.3436 -2.0720 -2.6938 -0.3508
-2.3779 2.9840 3.6416 -0.5570 1.5884 -4.2748 -2.0244 0.1931 -0.8404 1.7840 0.3994 -3.7656 -2.7470 1.3438 -0.3154 2.4738 -11.2679 -3.4251 -2.1552 -3.1270 -8.7040 -5.3284 -4.6144 -0.1162 -2.5577 -8.9367 -8.9690 -7.3510 -8.4620 -5.6050
-4.3684 -2.6794 -9.6462 -1.2679 0.3982 -2.0117 -2.8727 5.2991 -1.0341 0.0489 -1.3885 -20.5339 -1.6692 1.6470 -2.2175 2.9036 -10.8936 -3.2671 -3.4575 -6.6281 -8.3077 -6.1732 -5.5878 -3.7657 -4.2817 -9.5823 -10.7335 -10.8517 -12.6690 -7.7157
-3.7309 -6.2205 -17.7514 -0.6936 0.1415 -1.7851 -5.4982 5.0629 -0.9286 -0.0621 0.0816 -20.7783 -0.2778 1.5563 -1.3548 3.0666 -7.7891 -2.5364 -2.8682 -5.3336 -7.6714 -5.4506 -5.6009 -5.1097 -4.8465 -7.3920 -9.6448 -9.6879 -12.1939 -5.9463
-2.5187 -5.0546 -18.1079 1.4946 0.6978 -4.9959 -5.2868 1.6139 -0.1927 0.4354 -0.2018 -12.9799 0.7787 1.1968 -1.8187 0.1892 -4.8888 -2.2577 -3.0062 -4.9069 -7.0736 -4.4149 -5.5549 -6.1805 -6.2228 -8.5362 -10.1308 -8.6833 -12.1174 -6.2731
-0.7792 -0.8992 -15.5307 0.6421 1.2759 -6.6976 -2.0322 -1.6387 0.0765 0.5476 -2.5371 -10.1667 0.8400 1.3728 -2.8101 -1.1002 -2.9840 -2.3910 -3.8985 -6.3726 -3.4456 -2.9377 -4.7515 -6.2584 -5.9697 -9.8766 -9.8373 -8.2064 -11.7501 -6.7996
0.9753 5.3110 -4.3081 -3.2092 1.5641 -4.3697 2.5557 -7.3593 -0.8462 0.6361 -4.2025 -1.7095 -1.2630 1.3261 -1.7723 1.8942 -4.5457 -2.5446 -3.6883 -6.1075 -1.4566 -2.2100 -3.3723 -3.9180 -3.2674 -8.0817 -7.6062 -6.7154 -9.2346 -4.1322
1.0398 8.3080 13.1849 -4.7729 2.0413 -1.3008 6.4638 -13.7949 -1.6801 1.0343 -5.2546 7.3781 -3.8105 0.3457 -0.4504 4.4998 -9.2757 -2.9831 -2.8525 -4.3779 -5.6822 -3.4582 -2.9082 -2.1348 -2.3280 -7.5898 -8.0847 -6.7412 -9.1272 -2.5544
-0.8000 5.6756 16.8663 -3.7963 2.4261 -0.2853 6.2713 -13.9756 -1.4500 1.2021 -5.6565 -2.6630 -2.9682 0.0418 -0.0339 4.3270 -10.3519 -2.8403 -1.8570 -2.9835 -8.5760 -3.6845 -2.1427 -1.5070 -2.6254 -8.1552 -9.4153 -7.3117 -10.9998 -3.3297
-1.6829 3.1845 2.9801 -4.0346 1.8735 -0.5145 2.0042 -9.0362 -0.8876 1.1000 -3.7407 -15.2321 1.1972 1.5250 1.5107 5.4338 -4.4351 -0.6577 0.2380 -0.8577 -4.3829 -0.2292 0.8290 1.3643 0.5431 -4.4562 -5.2387 -3.7703 -8.0515 -1.2476
1.0543 2.5466 -5.6636 -4.1125 0.7612 -0.8301 -0.8885 -4.4810 -0.4668 1.3037 -0.6115 -1.1372 3.9123 3.0669 3.8514 9.6832 0.9932 1.8592 2.2434 2.3612 0.4907 3.2349 3.6509 4.9352 5.1278 0.3131 0.4387 0.9762 -2.8171 2.9175
3.9005 1.1439 2.3103 -0.8378 0.1866 -0.9347 -0.0313 -1.1861 0.0732 1.3959 1.0337 21.9011 2.9748 3.3214 4.1235 12.6281 -0.7107 1.6866 2.0964 4.2324 1.2169 2.6292 3.3569 4.6691 6.0958 0.1478 0.1332 0.6402 -3.4088 3.5052
2.1157 -0.0525 9.4701 3.3312 0.3854 -0.3182 1.1817 0.7844 0.6919 0.6769 0.8399 21.7280 2.1054 3.3278 2.6709 11.5126 -4.3604 0.2599 1.2575 3.9323 0.9141 0.7170 1.7550 2.2387 4.9871 -0.8211 -2.6596 -2.0409 -6.8866 1.8303
-0.5997 -1.4169 0.2805 5.0570 0.6819 -0.2688 0.9778 1.9620 1.3644 -0.0066 -0.3443 7.8930 3.7961 3.7064 1.9703 10.2029 -3.2287 0.9951 2.0374 3.8150 1.7090 1.6250 1.8896 2.1555 5.0987 3.3890 -1.6719 -1.0590 -5.5227 2.6248
0.4591 -3.4292 -13.5165 4.8235 0.3697 -2.9314 -0.2821 3.8132 1.8061 0.7962 -0.6316 1.1095 5.0560 3.8261 1.8988 10.3427 0.2511 2.9372 3.3669 4.5216 3.0038 3.9209 3.3253 3.9193 5.3406 9.1468 1.4210 2.4664 -1.0744 4.4294
1.9864 -2.3243 -12.5833 3.1881 -0.1552 -5.8634 -2.4764 3.4981 1.2512 2.7923 1.4058 -4.0212 4.0467 3.7918 1.5576 6.9658 2.2637 3.4019 3.4357 3.6952 4.6555 4.5531 4.0255 4.4086 4.4374 10.0941 2.7169 4.4301 0.5613 3.7249
1.8412 0.5907 -0.2513 0.6339 0.2862 -4.8800 -2.5338 -0.4649 0.1809 4.0043 2.5385 -10.6763 3.1072 3.9493 1.9241 1.0482 3.1765 2.8237 2.7038 1.2624 5.2506 3.4392 3.3999 3.3407 3.6737 6.9747 1.7186 3.9310 -0.8252 1.9945
3.0082 0.8774 8.1112 -0.4109 1.4562 -1.8908 2.1094 -2.8412 0.0166 3.6290 -0.2244 -6.3685 2.5813 3.9246 2.7842 1.4024 1.8312 2.0772 2.1258 0.0724 3.1372 1.3408 2.2295 2.4662 3.7275 4.4817 0.0317 2.4834 -1.9848 2.2626
4.3845 2.2616 11.1470 0.5975 1.8117 -1.3723 7.1115 -2.4264 0.6014 3.1385 -3.1974 5.5975 0.5340 3.6683 1.9143 7.1334 -2.2185 0.6930 1.5527 0.1917 0.2701 -0.9326 1.2764 2.3024 3.5440 3.7730 -0.5351 2.0262 -1.4062 3.7702
3.0889 6.7013 12.8087 0.9658 1.2222 -2.4071 7.1820 -3.9437 0.7969 3.3473 -2.2245 7.6878 -1.3401 3.4335 -0.4542 8.8461 -4.0815 -0.2432 0.6539 -1.1058 -0.1972 -1.5544 0.7170 1.9267 2.9899 2.9891 -0.1173 2.7456 -0.2001 4.1517
2.3200 7.2294 9.1744 -0.1612 0.9746 -2.1518 4.1896 -5.3492 0.7027 2.9064 0.7114 1.7684 -0.3304 3.1725 -1.5870 7.4541 -2.1271 0.6794 -0.2931 -3.4619 1.1768 -0.3683 0.6386 0.9620 3.6597 1.6651 -0.3959 2.5960 -0.0868 3.9436
4.5261 3.1707 1.8359 -0.4435 1.3930 -1.7194 3.0893 -2.0449 0.9931 1.2453 1.7085 0.3301 1.6737 2.9400 -1.1412 9.5165 -0.7115 2.0176 -0.9357 -3.8854 1.7112 0.5898 0.8339 0.2470 5.5047 0.8854 -1.3388 1.2297 -0.8917 5.3886
5.4946 1.9149 -0.3525 1.4336 1.8202 -2.2631 3.9416 1.4076 1.4965 0.1517 0.8968 1.0812 2.3249 2.4366 -0.9452 11.9623 0.2644 1.9113 -1.5189 -2.3831 1.0695 1.0243 0.4848 0.2926 5.9674 1.9539 -1.0382 1.4678 -1.1385 7.6431
3.0972 3.0858 2.6300 3.9820 2.0637 -1.7277 2.5643 1.8364 1.7745 0.9798 1.8722 2.6723 2.7665 1.1743 -0.7597 9.5667 2.6797 0.7190 -2.2135 -1.1155 0.0271 1.7229 -0.3587 0.5903 4.6402 4.5339 1.2207 4.4832 -0.1812 7.8871
1.4846 -0.3946 3.2980 4.8335 2.2454 0.8358 -1.6662 3.2440 1.7696 2.8155 5.6931 10.4494 2.8282 0.1006 0.5253 5.7468 1.6270 -0.8324 -2.4360 -0.2555 -1.7126 1.3404 -0.7304 0.9825 4.0577 4.9833 3.5102 7.4646 1.9640 7.1692
2.6484 -6.9129 -0.4783 3.2049 2.2976 3.1164 -3.0765 3.1251 1.5152 3.9837 7.5764 14.4240 0.4871 0.4107 1.1239 4.9162 -4.2936 -2.4636 -2.1639 0.1112 -2.4989 -0.7386 -0.9422 1.5974 4.6610 2.0754 3.7339 8.0254 4.4506 8.2010
3.4105 -6.1252 -3.0053 1.2990 2.1420 2.3330 1.4453 -1.4410 1.2779 3.3636 3.8656 3.5347 -2.0820 1.3772 -0.5918 4.8826 -7.0621 -3.1015 -2.2503 -1.2768 0.1290 -2.0547 -1.5731 1.7746 4.8066 0.9474 2.6112 6.9026 4.9878 9.1606
2.5412 4.0948 1.7326 1.6763 1.7212 -1.6863 6.9038 -1.5251 1.5451 0.9836 -1.4614 -11.0394 -0.9654 2.0669 -2.1759 3.2688 -3.4925 -1.9899 -2.4171 -3.1370 4.0425 -0.9479 -1.3146 1.4766 5.0033 4.6199 2.5921 5.9389 3.1795 8.4364
2.7883 13.4233 12.3782 3.1822 1.3451 -5.3752 9.3895 4.5826 2.1088 -1.3743 -3.5255 -15.3959 2.0714 2.7346 -1.7046 2.9179 0.9525 -0.3358 -1.8185 -2.8858 5.8095 1.3815 0.4578 2.0108 6.3747 9.2761 4.6631 6.8160 2.6085 9.4296
4.7428 14.3841 21.8471 3.2572 1.5095 -4.9371 10.7999 4.6513 2.1714 -1.8458 -3.1087 -8.5058 2.5570 3.0408 -1.1009 5.0923 2.5741 0.1814 -1.2971 -1.2223 5.6443 2.7844 1.6805 3.6010 7.2393 10.8820 6.9378 9.3574 4.9451 12.3076
5.9071 8.2408 24.1410 2.5944 1.8011 -1.0850 11.0068 -0.7892 1.6513 -1.0232 -1.9021 6.7752 0.4768 2.2039 -1.2705 5.6999 0.7601 -0.5314 -1.7606 -0.0657 4.5733 1.9346 1.0414 5.0016 6.0741 9.4381 6.7201 10.5720 6.6519 11.9923
5.7488 -0.5027 16.6580 2.6848 1.6475 2.0644 8.0598 0.4298 1.1953 -0.7482 0.1090 19.4700 -0.7654 1.1708 -0.6828 3.9707 -2.5236 -1.1143 -1.9099 0.6808 3.7729 0.3412 0.1948 6.0357 5.1680 7.8466 4.6524 9.5919 6.2684 9.2282
5.2010 -4.2980 1.2054 2.7327 1.3858 1.5192 4.5436 6.5198 1.3970 -1.1636 1.1569 13.1181 1.2539 1.7616 0.5235 4.5768 0.0352 0.1224 -0.3705 1.3325 5.5219 1.5870 1.0007 7.4273 7.0457 8.6496 4.0751 9.3951 7.0425 9.1919
4.2392 0.3689 -13.2929 2.8109 0.8869 -2.1134 3.2119 9.1164 2.4401 -1.3113 0.0298 -2.2449 5.4159 3.6957 0.9923 7.6110 9.6728 3.2396 1.8727 1.6699 8.6027 5.5832 3.0306 8.7052 9.6999 10.5370 5.6953 10.8060 9.2023 10.4271
3.8900 4.8920 -13.6773 4.0270 -0.2548 -5.1870 2.3410 9.4606 3.3706 -1.4181 -0.0087 2.5119 6.8746 4.6704 1.0795 8.0517 13.0220 5.3479 2.9530 2.1698 8.2650 7.1765 4.2761 8.7953 9.6536 9.8050 6.7628 11.0755 9.0608 9.4953
4.6323 3.4895 1.5546 5.2885 -1.0219 -5.3571 1.6259 10.2265 3.1097 -2.3886 1.9468 20.0312 4.0211 3.8831 1.2725 5.6725 3.6723 4.2831 2.4716 2.6813 3.7534 4.0642 3.3665 7.4033 7.3053 4.9658 4.9797 7.9236 5.6974 8.1698
3.9550 3.4680 12.5156 5.5146 -0.8517 -4.8603 3.6800 11.1940 2.6317 -3.8170 0.3616 18.7321 2.4186 3.1063 0.4406 5.0156 -4.3286 2.4956 1.3433 2.0537 -0.1882 0.9777 1.2649 4.9556 5.2466 -0.6357 1.5387 2.2301 1.3856 6.7877
1.9127 6.9234 5.9438 5.0513 -1.0303 -5.2436 5.5914 11.6743 2.8845 -3.8825 -3.7316 7.4495 4.1794 3.3199 -1.1724 6.6769 -1.9889 2.6667 0.2518 0.8248 0.0180 1.7983 0.1620 2.6538 3.9451 -1.2935 0.5795 -1.4245 -1.6183 3.4344
2.3291 5.1062 0.8969 3.3999 -1.8299 -3.4796 1.4274 8.4876 2.5101 -1.8548 -0.7445 11.6344 4.2288 3.5732 -0.9005 6.9440 1.7720 3.2850 -0.5968 0.6748 2.8423 3.9955 0.6816 1.7567 2.5115 2.9634 3.4582 -0.1221 -2.2718 0.6126
4.5939 -1.8099 11.2814 1.3455 -2.0827 0.0850 -3.9896 3.5701 1.2885 -0.1601 6.0327 15.7297 2.4731 3.7452 1.2423 5.1427 2.0570 3.0643 -0.5083 1.2617 4.5157 4.6413 1.8514 2.0220 1.5318 4.9462 5.9011 2.5882 -1.6822 0.9651
4.2454 -5.1139 13.2616 1.6102 -1.8740 -0.0919 -1.9098 5.8836 1.2855 -1.2547 3.2916 2.3301 3.5102 4.5101 1.8170 3.9603 3.1785 3.3898 1.0300 1.3998 3.5099 4.3234 2.8258 2.3464 1.8763 1.7692 5.1756 3.2954 -1.5044 2.4706
1.4054 -5.5136 -6.4636 3.5191 -1.8513 -2.7945 1.0410 14.3082 2.3322 -3.0006 -3.3754 -6.5834 5.4518 5.3561 0.9971 3.0736 4.0573 4.1872 2.8325 1.6968 1.8496 3.6020 3.0353 2.6323 2.3397 0.3454 4.5508 3.9611 -1.4147 3.2988
-0.5304 -6.5883 -16.8088 3.3393 -1.7158 -1.3436 -5.0380 15.7050 1.9777 -1.9152 1.1745 1.4519 4.4256 5.8611 2.6215 0.9643 2.3119 4.2674 3.4779 3.2277 2.7199 2.9586 2.8028 3.6051 2.4293 5.8374 6.7811 6.1790 -0.3957 3.6721
-0.5076 -2.3584 0.9816 0.6000 -1.5661 1.6050 -11.1264 6.3735 0.2535 0.3704 9.8223 7.8659 2.7699 6.6726 5.7479 1.0905 1.9215 4.6610 3.5371 5.4438 6.3551 4.4791 3.8326 5.2155 4.7241 12.0998 9.5157 8.4671 1.8551 4.1264
0.7934 7.4736 17.5036 -1.3456 -1.8510 -1.1937 -6.3476 -1.5843 -0.4687 0.0553 7.4883 7.0197 3.4670 7.7565 5.5496 6.0044 4.5713 6.3412 4.0647 6.3645 9.1211 8.2232 6.2993 6.3003 9.2068 11.3270 9.5747 9.7343 4.7652 5.3760
2.2070 10.0642 11.7581 -0.6845 -2.2078 -6.2057 1.3288 -0.2623 0.2469 -1.9012 -0.5067 5.5813 5.2456 8.1686 2.5237 10.8170 6.5000 7.7388 4.5407 4.9624 8.3434 10.7353 7.5895 6.2961 11.2124 6.3044 7.2521 9.5017 6.2685 6.5680
2.8697 2.7108 5.0809 0.4730 -2.4593 -6.4820 3.1731 3.1719 0.5451 -2.3569 -3.0021 -1.3622 5.7806 7.4079 1.1911 11.5372 5.5818 7.2790 4.2375 3.4622 5.5508 9.6603 6.2553 6.0870 9.7746 3.3501 4.8119 7.4676 5.4147 6.2861
3.2800 -2.1909 9.5010 0.1854 -2.7175 -4.4916 2.8794 3.0331 -0.1696 -1.9580 -2.0185 -8.0245 4.7036 5.8334 1.6160 9.7748 3.2285 5.5091 3.4106 4.0167 3.1633 6.4476 3.6749 5.7115 8.2685 2.3279 3.4937 5.1550 4.4356 5.2644
2.7847 -0.8474 6.3251 -0.5589 -2.5988 -3.8749 2.0082 3.5563 -0.7038 -2.5904 -1.6969 0.4056 3.1665 4.4402 1.1115 6.0292 1.1308 3.6568 2.2249 4.4527 1.6763 3.9199 1.2713 3.8542 6.3715 1.8551 3.6540 4.5559 4.6059 4.0842
0.1465 0.2278 -4.2973 -1.3510 -2.3824 -2.7818 -1.4423 4.5851 -0.9646 -3.4488 -0.7561 11.0736 1.3321 3.6483 0.2054 0.8118 -1.3981 1.9184 0.8124 2.5106 0.5800 2.9658 -0.3252 1.2511 2.7897 1.8731 4.8365 4.9892 4.2796 2.8281
-2.3345 0.1708 -2.9550 -2.3842 -2.6219 -1.8994 -3.4822 3.6150 -1.4472 -3.7734 0.1132 3.1684 -0.1819 2.4899 -0.4323 -2.2701 -3.5226 0.3112 -0.2374 -0.5134 -0.9103 2.6885 -0.9792 -0.1818 0.1966 -0.4655 4.2348 3.5234 1.9346 1.7810
-2.6550 0.8609 1.8714 -1.2443 -2.4770 -3.7994 -2.3945 6.0810 -1.0454 -4.1111 -0.6454 -11.5743 1.6036 0.8936 -2.1012 -3.0731 -0.2456 -0.1903 -0.8019 -3.3804 -2.8821 2.8010 -1.6273 -1.2430 -0.4463 -5.0428 -0.0125 -0.6878 -2.4520 -1.3252
-2.6350 1.2634 -3.9265 1.8777 -1.4173 -5.6987 -2.8318 9.4620 0.3964 -3.6242 -0.7508 -10.9356 4.8578 0.8741 -2.9844 -4.1944 5.5141 0.5577 -0.9436 -4.5399 -3.8491 3.0246 -2.3223 -2.3226 -0.9356 -6.0354 -4.0634 -3.6307 -6.0447 -5.9642
-2.2039 1.9848 -5.1347 2.1310 -0.4401 -4.4486 -3.5184 4.5707 0.9384 -1.7397 -0.0429 2.6597 3.1049 2.8012 -0.6906 -4.3375 2.5820 0.7985 -0.6528 -1.5768 -3.0887 1.9108 -1.7720 -1.2843 -1.0280 -3.2933 -4.0464 -2.0310 -4.8352 -5.4541
-0.0256 1.8998 3.0249 0.0305 0.0146 -2.0725 0.3728 2.3254 0.6596 -0.8073 -2.6304 10.7663 -1.1583 3.9304 0.9505 -3.3305 -5.8709 -0.3220 -1.0970 1.9539 -2.9748 -0.5001 -1.2849 0.2120 -1.2876 -3.9582 -3.5811 -0.2173 -1.6043 -1.0586
0.7501 -2.4740 1.8836 0.3907 0.2998 -0.9292 3.9711 12.3226 1.0560 -2.2215 -6.9493 1.8161 -0.2981 3.0683 -1.3633 -4.5940 -5.6734 -1.4504 -2.8459 -0.3045 -5.5061 -1.9407 -3.1823 -2.0605 -3.9056 -8.5641 -6.3853 -3.1898 -3.6193 -2.9916
-1.3879 -6.2007 -5.7275 0.8187 0.1745 -0.8613 0.5665 13.0612 1.0589 -3.5032 -5.6941 -13.8706 2.5215 2.2764 -3.0974 -6.5143 0.8413 -1.4137 -3.7227 -4.9762 -7.4391 -1.4321 -4.9301 -5.6637 -6.6567 -8.7339 -7.6253 -6.3529 -8.9862 -9.2653
-1.6413 -1.7123 -2.6797 -2.1373 -0.5310 -1.9736 -3.6549 -4.8273 -0.1452 -2.9890 -0.8132 -12.9593 1.1058 2.5559 -1.1494 -4.8451 1.2127 -0.4726 -2.6297 -4.6167 -4.8342 -0.2292 -3.1881 -5.6791 -5.9778 -2.0313 -3.4896 -3.7476 -9.2363 -8.8076
1.2674 5.9653 6.3122 -3.4215 -1.2472 -4.7391 0.7772 -13.8010 -0.5790 -2.7368 -2.9402 2.3659 -0.8166 2.5308 -0.2533 -2.5178 -2.8563 0.3156 -2.0672 -2.3180 -0.9847 0.2512 -1.0300 -4.6015 -4.6246 2.3508 -0.2761 -0.3369 -5.5618 -4.5882
1.9903 7.6794 8.6151 -0.2692 -1.4592 -7.0647 8.9384 -4.0795 0.2037 -3.7052 -11.1175 6.1810 0.3312 1.8096 -2.8240 -3.6625 -3.1147 -0.0420 -3.1778 -4.2910 -1.4548 -0.7862 -2.4531 -6.3169 -6.4640 -2.0629 -3.2078 -2.9019 -5.8576 -5.8375
-0.6985 2.0119 3.2150 1.5167 -1.1758 -4.8859 8.0513 1.1985 0.1454 -3.2259 -11.7436 -2.5625 0.8612 1.4788 -4.0496 -5.2331 -1.1675 -1.2187 -3.5981 -6.6708 -4.9874 -3.1103 -5.0855 -8.0653 -9.1333 -9.0063 -7.3404 -7.4024 -9.1862 -8.3440
-2.2232 -9.4839 -5.2175 -0.2817 -0.6979 1.5640 -2.6826 -4.7232 -1.0479 -0.2709 -1.5916 -5.1203 -0.3826 1.4137 -1.7385 -4.8885 -1.3592 -1.9850 -2.7186 -4.7782 -7.5131 -5.2226 -5.7661 -7.3140 -10.0213 -10.8299 -8.0340 -8.0628 -9.8072 -6.7223
-1.6926 -19.0091 -9.2545 -0.9185 -0.2452 5.2353 -11.2199 -6.9785 -1.5663 1.8153 6.6115 -2.3081 -0.1379 0.7069 0.0904 -6.2288 -2.1463 -2.0019 -2.6807 -2.9436 -8.1557 -5.7414 -5.7699 -6.5120 -11.3229 -8.8841 -7.6731 -7.7076 -9.2429 -7.1139
-2.4376 -12.5305 -5.2775 0.9516 0.1293 1.3778 -9.6542 -2.6417 -0.6282 0.8119 4.0150 -3.8782 2.0874 0.2173 -0.5332 -9.5409 -0.8562 -1.3572 -3.0627 -3.9658 -6.2740 -3.8334 -5.4605 -6.1692 -13.0239 -5.6526 -6.7523 -8.2976 -9.8615 -10.5690
-4.3471 5.3113 -1.2122 1.6222 0.2992 -4.6731 -2.2539 -0.2982 0.4973 -0.7172 -3.9209 -8.1141 4.2808 0.8818 -1.5070 -9.8641 2.2257 -0.2134 -1.8511 -4.0434 -2.1951 0.2318 -3.2636 -4.0305 -11.4027 -1.0875 -2.7732 -5.6059 -7.9255 -8.1557
-3.8614 10.6299 -3.1268 0.0460 0.2840 -5.5087 3.0040 -1.3037 0.3800 -0.0334 -8.0856 -9.8310 4.9360 1.0260 -2.2991 -7.9146 4.2108 -0.0299 -0.8652 -3.2806 -0.7802 2.7076 -1.5590 -1.7516 -7.9817 0.1564 0.1769 -1.5139 -4.1775 -1.5752
-0.7610 0.5148 -5.4763 -1.4676 0.4599 -2.4725 2.7005 -1.0532 -0.5251 1.6536 -5.8591 -6.8222 3.4591 -0.2809 -3.1959 -8.8641 2.8188 -1.3417 -2.1477 -4.6248 -3.8975 0.3441 -3.0045 -1.7758 -7.3854 -4.3222 -2.9827 -3.1811 -5.1950 -1.3834
1.3067 -2.5451 -3.8869 -2.8672 0.8044 -1.6484 -1.0063 -0.1792 -1.1553 2.0132 -0.9503 -1.0339 1.1566 -0.6894 -2.2555 -10.1435 0.2489 -1.7073 -2.4690 -4.2316 -5.4847 -2.7162 -3.7984 -0.9972 -6.9482 -6.1032 -5.6696 -5.4319 -6.9932 -3.6317
0.8090 6.4165 -0.9234 -5.0729 0.7170 -3.7461 -2.0482 -2.3483 -1.7474 0.9340 0.3532 2.8343 -0.2424 0.4906 0.3732 -6.7616 -1.1321 -0.2487 0.3695 1.0077 -2.9182 -1.5043 -0.9740 2.7091 -2.6082 -1.4686 -0.6337 1.7632 0.0571 2.2086
-1.0726 7.8886 0.6570 -4.8411 0.2736 -3.7848 0.3790 -2.0450 -2.1259 -0.3062 -2.5472 1.3516 -0.3036 0.4501 1.4178 -3.3676 -2.0184 0.2477 2.1588 4.7720 -2.0075 0.6259 0.6725 4.6488 0.4495 0.4050 4.1723 9.3016 7.8692 8.1210
-3.7002 -5.0461 -2.4581 0.2454 0.2991 0.4597 -2.5503 7.7360 -1.2674 -0.9000 -1.5542 -8.0911 1.6908 -1.3193 1.0339 -4.5657 -0.4822 -0.8521 0.3258 3.3322 -4.6622 0.0124 -2.0121 2.1562 -2.4101 -3.1148 0.1250 3.4074 2.3960 2.1712
-4.9699 -16.1222 -10.5741 4.2718 0.7917 3.9076 -10.8086 14.6818 -0.2172 -1.2438 4.7214 -19.2897 4.4577 -1.8104 1.8058 -4.8594 3.7850 -0.8792 -1.1824 2.5798 -5.2969 0.0259 -3.8814 0.0148 -4.6181 -2.4928 -4.6959 -5.2627 -6.8689 -4.8885
-2.1637 -11.6041 -13.1154 1.0772 0.9755 1.7619 -9.9428 3.5272 -0.8783 -1.9591 5.4089 -15.2409 3.5130 -0.0331 2.7878 -0.6974 3.7132 0.1443 0.2286 5.0950 -2.5597 2.1731 -1.2719 1.5340 -0.4489 4.1010 -1.5922 -1.3357 -3.6246 0.3094
1.6977 2.9232 -3.8346 -4.0886 0.6691 -2.7586 1.4330 -10.9276 -1.9843 -2.4245 -2.0154 3.4883 -0.2739 1.7537 2.6201 2.4383 -0.3939 0.0006 2.2552 6.6012 -0.6640 2.9586 1.9068 4.1587 4.8480 7.5528 3.1187 6.6514 5.1054 8.3448
1.6775 12.1103 4.9231 -2.9958 0.1825 -4.5633 7.4166 -7.4738 -1.3094 -1.8516 -6.4060 11.7609 -0.1796 2.1585 2.8090 1.3889 1.7792 -0.4697 3.4682 6.5937 0.5117 2.4992 2.4729 6.1015 6.3867 5.9447 3.8806 7.8922 7.0773 8.9384
-0.1746 9.7573 4.7788 1.5088 -0.0265 -4.0506 3.9948 1.1919 -0.0379 -0.7617 -3.0572 1.7653 3.1225 1.9223 3.5989 0.1160 7.9082 0.2659 4.2953 7.3315 2.8619 3.1717 2.3298 7.8976 6.9754 5.6330 5.2870 8.8260 6.9271 9.4466
0.6046 3.4444 2.6933 2.8049 0.6651 -4.0081 1.6222 -0.5469 0.0897 -0.2913 0.4006 -7.7513 3.1373 1.5119 3.4231 0.9428 6.9482 0.7845 3.7895 7.0631 3.0331 3.2451 2.5116 8.1863 7.6024 6.5887 7.1343 11.4231 8.6402 13.3903
2.7108 1.1956 -1.2445 2.7527 1.8998 -5.3894 3.6421 4.0464 0.4984 -1.2634 -2.2902 -10.4351 1.7236 0.4984 2.2702 0.7289 3.2429 0.2766 1.4502 4.4249 -0.0121 1.6897 1.6539 5.7732 4.8178 5.0272 3.9395 7.6163 6.4056 12.0356
2.7399 1.9681 -7.4108 3.8600 2.2611 -5.8807 5.0710 17.9939 1.5575 -2.9138 -6.9425 -10.3611 2.7380 -0.9971 1.2375 -2.8502 4.3022 -0.5702 -0.7904 2.0700 -1.5839 0.7313 -0.0650 3.1097 -0.3089 3.5412 -0.7392 0.7254 1.3314 5.0513
0.7821 1.2246 -0.7441 1.9771 1.2338 -1.9574 3.2288 10.5340 0.2613 -2.9334 -5.1445 0.7869 0.8338 -2.0913 1.0276 -7.1262 2.4863 -2.5885 -1.3721 1.9265 -1.6645 -0.0574 -1.4154 2.3249 -3.2053 4.4811 -0.5748 0.2504 -0.1494 1.3207
-1.3374 -1.9291 16.3634 -2.6340 -0.2575 3.9726 -1.2700 -14.5999 -2.8502 -1.2052 2.0817 17.1635 -4.7267 -1.9181 1.5884 -8.6691 -4.4274 -4.8662 -0.8204 2.7749 -3.7680 -1.8607 -2.0789 1.9326 -4.2214 4.4358 1.0852 2.6556 -0.4713 1.0055
-2.4908 -4.8559 15.0170 -2.8025 -1.2216 4.4426 -6.0008 -14.8140 -2.7157 -0.5032 5.1882 13.0011 -3.7405 -0.3243 1.8642 -7.9168 -4.1303 -3.5976 -0.0321 2.9094 -5.2983 -1.9328 -1.6352 0.8717 -5.8001 1.9612 -0.3891 0.9595 -2.9096 -0.8407
-2.1749 -4.9700 -7.2631 1.0751 -1.5926 -1.5332 -7.8496 8.8486 0.4916 -1.5628 1.8198 -8.1839 4.1947 1.6108 1.4255 -6.9084 4.2451 0.5138 0.8406 2.7359 -3.0534 0.8800 0.1920 0.8849 -6.0809 -0.1624 -1.9855 -0.8975 -2.1613 -1.7694
-0.8888 -3.9335 -19.5715 1.2669 -1.9355 -5.9454 -7.6679 16.8264 1.0506 -1.8971 -0.1815 -15.1603 7.2860 2.4645 1.7183 -5.7140 8.1919 2.2981 1.7646 3.6522 -0.6555 2.9551 2.0033 2.4919 -3.2583 -0.3929 -0.5825 1.3979 3.1723 0.6213
-0.1559 -5.9146 -11.1843 -1.8257 -2.2541 -3.0813 -9.6271 6.4963 -1.4646 -0.3100 4.2055 -2.3146 3.9613 2.0354 3.5341 -4.0453 6.0942 0.8434 2.3119 4.4848 -1.2638 2.2310 2.1239 3.3741 -0.2981 0.0554 1.0490 2.7260 4.8943 1.4608
-1.1376 -8.0874 -0.1399 -1.1618 -1.9480 2.1317 -12.3018 2.1433 -2.0816 1.1029 9.4417 8.1890 2.7455 1.2792 4.7688 -3.6845 4.9056 -0.2660 2.2278 3.0295 -2.0758 0.9134 1.2337 2.5041 -0.0194 -0.3212 0.2992 -0.5751 0.0936 -0.9055
-3.2333 -2.0115 3.3350 2.3318 -1.3289 1.0811 -8.7987 3.6657 -0.1825 0.1509 6.6562 3.8355 4.3308 1.2084 2.9880 -6.0316 4.5756 0.4754 2.0340 0.6428 -0.8240 1.1648 1.3304 1.4285 -1.1486 -0.5587 -0.4734 -3.0871 -4.0323 -1.4084
-4.0448 10.6122 4.6342 2.1131 -1.3501 -5.1241 0.6998 1.9600 0.7259 -2.1041 -3.2490 -7.1567 4.0507 2.1047 -0.7364 -8.5345 3.6320 1.4409 2.2772 -0.2223 0.5009 2.2910 2.3517 0.5340 -1.9045 1.1868 0.7379 -1.2275 -3.5895 0.4254
-2.2385 16.5786 6.2295 -1.2578 -1.8526 -7.4853 7.0814 2.9543 0.1352 -2.6941 -10.0348 -11.3498 2.8395 3.2200 -2.4492 -8.0854 4.5113 1.3227 2.7936 0.3451 0.7478 2.5638 2.7732 -0.7347 -2.1699 2.7552 1.4706 0.5264 -2.1554 0.5336
-0.2823 9.4688 4.4718 -3.4638 -2.3094 -3.4178 4.7664 5.4059 -0.5508 -0.8845 -8.3924 -7.1393 2.5425 3.5592 0.0761 -7.2812 5.5840 0.5792 3.2229 2.0161 0.7172 1.8224 2.5814 -0.7164 -2.1195 0.6932 0.3230 -0.4297 -1.9092 -0.4050
-0.8971 -1.8699 2.3828 -4.8975 -2.9225 1.2286 -2.5276 -1.0705 -1.5730 1.0524 -2.5891 -1.8498 1.0739 3.1591 4.3802 -9.9907 2.6300 -0.1422 3.2445 3.7583 -0.8213 0.7941 2.0532 1.1914 -2.8890 -2.7754 -0.1529 -1.4250 -2.2749 -0.9838
-2.6885 -5.7556 5.8207 -5.6286 -3.2193 1.9217 -7.9443 -8.5537 -2.2263 1.2160 1.7633 0.3826 -1.0807 3.0537 6.4914 -13.1083 -1.4464 -0.7408 2.8790 2.9654 -4.2391 0.0410 0.6508 2.1404 -5.1539 -3.5434 1.0716 -1.7315 -3.5083 -3.0018
-3.5135 -1.2456 5.7675 -3.1124 -2.3085 -1.1680 -8.3738 -3.5752 -0.6052 0.1996 1.7782 -3.9130 0.3489 3.8950 5.8217 -12.8782 0.5501 -0.4235 2.8680 0.7882 -5.7811 0.8144 -0.4100 1.4191 -6.3465 -3.0464 2.0780 -2.1550 -4.6788 -4.6310
-3.0745 3.7786 -5.9423 0.9082 -0.8372 -5.2857 -4.6659 4.8118 2.1468 -0.7562 -2.6537 -10.9761 4.9415 4.9880 3.9828 -12.8176 7.6370 1.0834 3.1067 0.6277 -3.8860 2.8704 0.1956 1.0320 -5.0992 -3.4120 2.1667 -1.9352 -4.7523 -3.4857
-0.3445 2.5771 -11.5000 2.1855 0.0953 -6.2163 0.5337 3.2106 2.8231 -1.4286 -6.4401 -4.6574 6.3289 5.1845 1.9307 -14.7479 9.8369 1.6525 2.4307 0.9112 -1.9657 2.7945 0.4678 0.5609 -4.0939 -2.1048 2.1417 -1.6732 -5.5455 -3.1871
3.4931 -3.8298 1.2724 1.0628 0.5410 -2.5005 2.4963 -2.7558 1.2128 -1.5662 -3.7794 11.2498 2.3764 4.4209 0.8636 -13.6810 4.3016 0.0041 1.1385 -0.7712 -1.9233 -0.3007 -1.2506 -1.0374 -4.4322 0.8171 1.7836 -2.7945 -7.2716 -5.2954
3.3189 -6.4057 10.5714 0.8211 0.6967 0.8501 -0.4832 -3.7299 0.1603 -1.1278 1.5299 10.1555 -1.0565 3.2876 1.1112 -9.4196 0.7518 -1.7126 0.2070 -2.0818 -2.3788 -2.4638 -3.3728 -2.5573 -4.7644 1.0547 0.3514 -4.2371 -7.1972 -5.7954
-0.7846 -0.6321 1.9759 2.2162 0.4201 -0.5693 -2.5264 -1.7503 0.9249 -1.1932 1.2282 -5.7912 -0.4228 1.9148 0.8698 -8.5538 2.7580 -2.0349 -0.9056 -1.2565 -2.8093 -2.3038 -4.8367 -3.1831 -5.1898 -0.2065 -1.3203 -4.2898 -5.4605 -3.8742
-2.5017 3.6780 -8.2344 3.0066 -0.0854 -2.5567 -1.1782 -0.1552 1.7217 -1.5674 -2.0681 -8.8551 0.6646 0.7182 0.1444 -11.5713 2.0371 -2.3465 -2.2215 0.2775 -3.7041 -2.6536 -6.1274 -3.4095 -5.5079 0.9969 -1.7550 -3.2573 -4.7635 -2.1446
-0.8779 0.1846 -8.0997 1.5763 -0.5079 0.1869 -2.2085 1.2781 1.2948 -0.5686 -0.1806 0.5906 0.1196 0.4943 1.0793 -11.7226 -2.3120 -2.8959 -2.3637 1.8518 -4.5079 -3.7090 -6.6274 -3.6180 -4.0755 1.7058 -1.2394 -2.4204 -5.2424 -0.4764
-0.3523 -0.3714 -1.0453 -1.0371 -0.7481 4.2613 -5.0365 -0.8859 0.4701 0.8410 4.2416 2.6455 -0.0988 0.6568 2.7403 -7.2083 -2.6646 -2.4036 -1.4535 3.1487 -4.6427 -3.4183 -5.7080 -3.9835 -1.4133 -0.9371 -0.7076 -2.1704 -5.0711 1.9535
-1.7612 7.6975 6.9066 -2.6649 -0.6291 4.2696 -3.7937 -5.9223 -0.1018 0.1656 4.1701 -1.3555 -0.1028 -0.0033 2.2141 -3.8624 -0.2329 -1.6801 -1.0487 2.8464 -4.2242 -2.6724 -4.5161 -4.5444 -0.3500 -2.0572 0.4113 -1.9344 -3.7788 3.1694
-3.1951 12.5151 5.6241 -1.9968 -0.1424 1.8537 -1.9101 -3.5900 -0.3977 -1.7522 1.8913 -1.4177 -0.9411 -0.9022 -0.1433 -5.0461 -1.1805 -2.1280 -1.6344 1.6423 -3.1372 -3.1199 -4.0478 -5.2747 -1.8980 1.1070 2.5418 -1.3583 -2.2349 1.9071
-3.4660 8.0235 -4.2092 -0.3557 0.2156 0.6742 -2.5912 3.7506 -0.2831 -2.6988 0.8754 -3.2502 -1.2440 -0.9432 -2.1398 -7.2380 -3.2275 -2.7134 -2.7507 1.5139 -1.9560 -3.8113 -3.8116 -5.9243 -3.7765 3.2020 4.1126 -0.6889 -1.2141 0.6056
-1.6633 4.0334 -4.9908 -0.9777 0.2811 -0.0298 0.9411 0.0884 -0.1902 -3.0435 -2.4682 -11.9079 -0.2459 -0.3448 -3.1838 -7.7794 -1.5477 -2.1314 -3.3872 1.6002 -1.6425 -3.2819 -2.9356 -5.3017 -3.5828 0.7427 3.9970 0.3489 -0.4998 1.6404
0.6074 5.3215 2.4707 -3.1567 0.6697 -1.9476 8.3061 -9.7059 -0.3629 -3.7252 -8.3984 -16.2837 1.0189 0.6354 -3.2787 -9.2146 1.8308 -0.9589 -2.2549 0.3977 -1.5766 -1.7917 -1.3224 -2.9145 -2.3133 -2.5295 3.4138 1.9787 0.5788 2.9863
0.3817 4.3305 -0.2769 -2.3107 1.2898 -3.3089 8.7645 -6.3658 -0.1471 -4.0079 -9.9284 -6.8909 1.6867 1.5799 -2.5996 -12.5681 2.4386 -0.4964 -0.5896 -0.8709 -1.7595 -1.2518 -0.3339 -1.2127 -2.8412 -3.4750 3.1576 2.2735 1.0931 1.2612
-0.8398 -1.2425 -7.2293 0.0792 1.1553 -1.3283 2.7842 2.0387 -0.1103 -3.0000 -5.4103 7.9814 0.8643 1.3530 -2.0043 -13.7833 0.1657 -1.3422 -1.1249 -0.8960 -3.5267 -2.6695 -0.9589 -2.0035 -4.5835 -3.3159 2.6028 0.1816 -0.0161 -1.5310
-0.0265 -4.1615 -1.7189 -1.9628 0.6578 2.7112 1.3645 -4.2493 -1.5050 -1.2251 -2.4356 13.7164 -1.3510 0.6826 -1.2348 -11.1488 -1.7351 -2.3504 -2.5233 0.2229 -5.2514 -3.6805 -1.1281 -2.4506 -4.0219 -2.6692 2.3336 -1.2477 -0.9352 -0.8519
1.0284 -3.2530 6.4320 -5.9040 0.8683 4.3795 3.8644 -14.4611 -2.9649 -0.1124 -4.0333 6.7118 -2.3285 1.5906 0.8786 -9.2576 -0.9827 -1.6505 -1.4864 2.2893 -4.2816 -2.2760 0.8550 -0.1981 -1.6686 -1.2393 3.0214 -0.8502 -0.4373 1.0008
-0.6875 -4.4320 2.7026 -5.3028 0.7924 3.2779 -0.4612 -11.1033 -2.6139 -0.0685 -2.5558 -4.2608 -0.8451 3.1942 3.7032 -10.9990 1.6021 0.1475 0.7661 4.1206 -2.4899 -0.6683 2.2791 1.9991 -1.4077 -0.7596 3.2462 -1.7914 -0.2912 -1.0193
-4.6987 -5.3802 -6.6298 -2.5831 -0.4824 2.8503 -10.5218 -4.1977 -1.5836 -0.3569 4.4977 -9.1539 0.3827 3.1780 4.9640 -13.0677 3.2774 0.7694 1.3917 4.0648 -2.5617 -0.7871 1.1225 1.9047 -2.8494 -2.0409 2.3602 -3.5464 -0.3808 -4.0994
-8.2345 1.7674 -11.9237 -1.7600 -1.2418 2.0852 -12.8006 -3.0464 -0.9113 -1.2159 6.3800 -6.4806 0.3857 2.1063 3.2111 -13.2082 3.2836 0.4892 0.8585 2.4270 -2.8013 -0.7620 0.1057 1.3616 -2.9155 -2.9472 1.8630 -2.5333 1.1748 -3.3683
-7.8355 10.8347 -11.7947 -0.4085 -0.4722 -1.0191 -4.0584 1.4066 0.3216 -2.8721 -1.2025 0.9628 1.5915 1.5939 -0.3176 -13.1750 3.3692 1.0179 0.0275 0.6446 -1.7260 0.3938 0.5819 1.4544 -2.5504 -2.4633 2.1654 -0.6938 2.8901 -1.5267
-3.4740 5.8638 -7.2476 1.7202 0.4826 -0.5445 2.1680 7.5992 1.2882 -3.1703 -5.5090 11.3205 3.0304 1.1368 -1.9861 -12.5502 3.2134 1.3731 -1.3572 0.1596 -1.8144 0.6067 -0.1705 1.1730 -3.9236 -1.9829 1.9307 -1.9390 2.4006 -2.5430
-0.7394 -10.0903 -0.7238 1.0807 1.1008 6.7894 -2.6930 3.4223 0.2687 -0.6291 1.1290 11.4007 1.6678 0.4244 0.0692 -9.5838 2.7152 0.2794 -1.7805 2.2347 -3.1618 -0.0677 -2.2435 0.8290 -5.1411 -1.5242 0.8416 -4.3805 0.8951 -4.1508
-2.3236 -16.0061 3.6383 -1.0407 1.8158 11.4992 -9.7753 -6.0903 -1.0986 2.1810 8.2896 -11.5115 0.2907 1.0395 3.0575 -7.6583 6.6370 -0.0065 0.0591 5.1552 -1.3478 1.4465 -2.2448 1.1291 -3.9052 0.3968 0.3982 -4.3399 0.4689 -3.1396
-3.8532 -6.9383 2.0298 -0.8722 2.0438 7.6229 -9.5143 -7.8926 -0.6122 2.2125 6.9323 -29.8348 2.4163 2.8115 3.6978 -10.3434 14.1905 1.7973 1.7700 5.0116 2.8876 4.5204 -0.4522 0.8949 -2.0908 3.1847 1.8366 -2.2323 0.8666 -0.9567
-2.9617 3.6764 -1.3327 0.5184 1.4896 2.5981 -3.5417 -5.1365 0.2105 -0.0210 1.2190 -8.4808 3.6048 2.9417 2.0910 -13.2543 13.9870 2.3221 0.9832 1.9178 2.7978 4.4540 -0.3469 -0.5191 -1.9219 4.5783 3.9358 -0.6008 0.5076 0.1032
-1.7757 10.0178 5.5154 0.6052 1.0994 1.0723 4.2870 -6.9766 -0.3458 -2.3540 -3.8540 23.2248 -0.0502 1.1452 -0.3481 -10.7258 4.1899 0.0368 -0.6826 -0.3155 -1.1235 1.1687 -1.8089 -1.4819 -2.0363 3.7610 4.0911 -0.8819 -1.1847 0.6150
-0.5008 11.0927 17.0873 0.5856 1.4893 -0.1420 9.9422 -8.7649 -0.7021 -3.7981 -6.9044 17.8703 -3.1897 0.2546 -2.3323 -5.3704 -1.4581 -1.4271 -1.1075 -0.3762 -1.4131 -0.1638 -2.1867 -1.0277 -1.4153 2.1962 2.5403 -2.3301 -2.6545 1.0705
0.7646 1.6324 10.4781 1.9385 2.2257 0.1433 6.4342 -1.7526 0.3230 -4.2212 -4.5788 -4.1743 -1.7539 0.6864 -2.6370 -3.6029 1.1159 -0.6399 -1.1751 0.2095 1.2038 1.0814 -1.6376 -0.6992 -2.1783 1.6706 1.8498 -3.0595 -2.4593 0.1534
-0.4674 -12.1094 -10.4038 3.1518 2.4149 4.8652 -4.5438 8.8029 1.1911 -3.5531 2.8604 -3.0980 -0.2715 0.4384 -1.9442 -6.0591 1.8477 -0.6104 -2.2015 0.4048 0.0356 0.5284 -1.7005 -1.8309 -4.7681 1.4162 1.5292 -3.2946 -2.1460 -2.1833
-2.8341 -14.7110 -15.7760 2.7281 1.5935 9.2248 -10.4933 11.1371 1.0629 -2.2689 8.0011 6.8174 -0.8964 -0.1598 -1.9992 -7.5166 0.8407 -1.6644 -3.1371 0.5180 -2.6424 -1.1867 -1.5475 -2.9142 -5.6986 -0.0088 0.5548 -3.5978 -2.5975 -3.0636
-2.0777 -5.2929 -1.9507 1.5752 0.5481 7.5536 -6.6473 4.7518 0.9403 -1.6050 6.6788 3.6959 0.4040 0.4163 -2.6491 -6.3724 5.9692 -1.0483 -2.5656 1.3075 -0.9689 0.2177 -0.0673 -2.1136 -3.7964 -0.0531 2.1712 -1.6599 -1.1868 -0.4787
0.3433 4.9158 8.6214 1.6016 0.6336 2.4641 -0.2484 -0.8892 1.2235 -2.1087 2.2380 4.5063 3.1729 1.2606 -3.0581 -7.3077 10.7275 0.6642 -1.4802 2.1775 1.4622 2.4485 1.0601 -1.0853 -2.8414 4.1059 6.7212 1.8707 1.5838 2.4256
0.3445 8.9204 7.4879 3.0678 1.8402 0.2465 3.9365 -0.5548 1.5895 -2.3895 -1.8689 14.7287 2.9405 1.1391 -3.3239 -9.8792 5.9384 1.0824 -1.3766 2.0122 0.3747 1.0130 0.6308 -1.7037 -3.9120 8.8960 8.8626 2.9921 2.0839 2.7289
-0.7861 5.3926 2.8252 3.6449 2.6285 2.5228 6.3851 0.8548 1.8591 -1.0759 -4.4096 9.2690 1.2287 1.0245 -2.8046 -8.0104 0.9008 1.1750 -1.2688 1.9378 0.5138 -0.6925 0.8825 -1.4779 -3.0497 9.7038 8.3640 3.7745 2.6772 3.8100
-0.6382 -2.6532 2.5822 2.2754 2.3561 6.2708 5.4110 -2.5653 1.5408 0.8404 -3.1770 -7.4958 1.7418 1.5026 -0.5198 -4.6705 4.3277 2.0470 -0.0470 2.9172 3.7822 0.9606 2.5045 1.2557 -0.3690 8.3476 9.1528 6.8039 6.0640 5.9702
-0.6465 -9.9832 7.6798 1.8269 2.1822 9.2033 -0.3915 -6.6419 0.6872 1.7160 2.6304 -4.7572 2.6701 1.2117 2.2862 -6.8331 6.4990 1.7464 0.7273 3.2950 3.6033 1.3105 2.1927 2.7306 -0.6027 7.0046 8.5577 5.7413 6.3410 2.9543
-1.1373 -12.9206 11.1601 3.6817 2.5480 9.9788 -5.7202 -4.2461 0.4031 1.3351 7.7829 8.0633 2.7684 -0.0363 3.0996 -9.4377 3.1344 0.4448 0.0068 2.7940 -0.2116 -1.4740 -0.0844 0.8572 -2.8076 4.2834 4.3152 -0.8580 1.8056 -2.6147
-0.7364 -8.5754 9.6779 4.8282 2.2351 6.9052 -4.2567 1.2182 0.7957 0.0557 6.0211 1.7135 4.7102 -0.0902 1.7067 -5.5940 5.2032 1.5784 -0.2870 3.3065 0.3402 -0.8599 0.5102 -0.4719 -1.7425 2.7676 3.3144 -2.0294 1.8369 -1.3127
-1.3984 -1.9758 6.0134 4.1953 1.0826 3.3890 0.1509 3.3032 0.8384 -1.1672 0.6014 -9.5437 7.3212 1.7719 0.8005 -0.3795 12.1946 4.7804 1.1817 4.3572 4.2357 3.7795 4.3373 1.3918 1.9609 5.4031 8.3476 4.9947 8.6100 3.9160
-4.6484 -5.0895 -3.1167 4.4586 0.5943 5.5252 -1.8970 3.6825 0.6871 -0.7424 0.7871 1.0211 6.8435 3.4372 2.5407 0.4550 11.9877 6.0841 3.2381 4.5864 3.4460 5.1097 6.3526 4.3390 3.7078 6.9556 11.3847 8.7741 12.2949 4.5340
-7.1405 -13.8706 -15.4429 5.5745 0.7708 10.2571 -9.9892 4.2742 1.1033 1.0422 7.0766 19.5917 5.0574 3.9205 6.1145 -0.9203 6.6187 5.5252 5.2035 5.8051 0.5720 3.1459 5.8061 6.7568 3.2121 4.8524 9.6082 5.7199 10.3451 3.0497
-6.4679 -12.7578 -14.8081 4.6350 0.0399 9.8896 -14.0975 3.2036 1.5960 2.0453 10.4384 19.8783 5.3268 4.7825 8.9813 -2.4885 5.9981 6.1993 7.3057 8.6784 2.8423 4.0142 6.2354 8.8410 3.3597 4.4982 9.4821 4.3444 10.3952 3.8168
-4.4802 -3.6293 -1.1459 2.1593 -0.8736 5.0206 -8.2815 2.1783 1.6039 1.2974 4.9380 3.8559 6.3764 6.3727 8.9315 -4.4442 8.8109 7.8872 8.2756 9.2334 6.8186 6.7604 7.4927 9.3620 4.6287 5.1469 12.0665 6.5084 13.7155 3.4954
-2.7515 2.1960 6.2510 0.8981 0.1451 1.1144 2.1710 2.5838 1.3590 -0.2850 -4.6833 -6.8325 6.2616 6.9723 6.4312 -4.2371 10.3470 8.3028 7.4589 6.8184 6.6206 7.0083 7.4136 7.7870 5.5738 2.1112 12.6097 6.4664 14.8313 1.3983
-1.1793 2.7483 5.2820 0.4637 1.8080 1.2398 5.2769 0.9189 0.7341 -0.8765 -6.5107 1.0134 5.3773 6.2896 5.4593 0.1329 11.3745 7.4842 7.3516 7.4979 4.4801 6.0947 7.2414 7.3429 6.3802 -0.3653 11.9446 4.8627 14.2821 2.2148
-0.4049 -2.2198 8.0123 -0.5509 1.4080 5.4177 -2.9776 -2.6691 -0.2403 0.4329 2.9520 13.5134 4.4802 5.7185 8.1229 4.1942 12.0883 6.8979 9.1191 12.0455 4.1600 6.7857 8.1334 9.7893 7.5509 1.6015 13.2984 5.2297 15.1947 4.7460
-0.9361 -9.3577 12.5646 -1.0604 0.0261 9.0740 -11.0096 -3.2517 -0.5810 1.6678 10.8754 9.9707 4.4972 5.5790 10.5329 2.5916 11.8128 6.9804 9.8465 12.7530 5.5361 8.0150 8.0945 11.4053 7.2180 3.2568 14.1000 4.5737 14.3371 3.3437
-1.4081 -9.2708 10.6155 0.4627 -0.1982 7.6808 -9.5040 2.4635 0.3255 0.5904 8.3000 1.7776 6.0249 5.4246 9.2455 -1.2863 11.7422 7.3623 8.3005 8.7133 6.7069 8.0949 6.7703 10.1042 4.9459 3.1862 12.2570 1.8156 10.9231 0.0703
-1.7797 -6.0668 1.8414 3.9615 -0.3853 4.7473 -5.9143 13.1331 1.7957 -1.3694 3.8913 6.6983 7.3276 5.4133 6.8995 -1.0741 11.2542 7.5213 7.0097 7.9001 6.4410 7.4199 6.4860 9.5447 4.2429 5.7729 12.1660 3.0947 11.6294 1.1453
-4.5561 -9.9480 -7.7812 7.0609 -1.4380 5.6637 -8.2258 18.3721 2.3730 -1.5216 5.4534 7.4882 5.8785 5.3742 6.6509 1.0635 8.3304 6.7273 6.5781 10.7729 5.9134 6.6463 6.9338 11.0740 6.0411 10.1718 15.6617 8.5844 16.3013 4.7938
-8.0088 -11.4515 -8.5556 6.5696 -1.4074 7.9276 -11.3559 10.4362 1.6066 -0.3367 8.5370 -4.4661 2.8187 4.8819 7.2099 1.0072 4.8679 5.2129 5.3458 10.3625 6.5186 5.7229 5.9841 11.0697 6.5879 11.5872 17.0454 9.6871 16.1980 5.6727
-6.2278 -0.0118 0.3900 3.5994 0.0965 6.1401 -8.4340 2.0774 1.1869 -0.4587 7.5299 -3.5944 2.6920 4.4047 6.2883 1.8714 5.8793 4.8414 3.8521 6.7993 7.3932 5.5190 4.7116 8.9401 4.9568 10.0546 14.2018 4.9901 10.9784 4.8682
0.0524 13.0347 6.7824 1.5840 0.6450 0.8397 0.3456 4.6269 1.7931 -2.6716 0.9974 9.8324 5.8694 4.2121 3.6115 4.8209 11.5354 6.0431 3.0315 4.6010 8.2366 6.9228 4.8413 7.4085 3.9509 9.6267 13.1775 2.9337 8.9947 5.6643
4.3310 15.7437 7.6336 -0.2507 -0.0103 -2.9165 10.6526 6.1697 1.3322 -5.0049 -8.2602 7.7746 6.5390 3.6371 0.2884 4.5897 14.4030 6.1634 1.6669 2.8946 9.2262 7.8239 4.5983 6.0890 3.8445 11.9374 16.3849 6.5756 11.8531 7.3444
5.2076 11.2167 12.3249 -2.4794 0.4057 -2.0647 15.5429 -0.1900 -0.4163 -5.7528 -11.8808 -3.2713 3.0539 2.4875 -1.6949 1.1520 10.4203 3.9216 -0.2624 0.8975 7.9198 5.7605 2.5113 3.6047 2.7340 13.8420 18.1091 9.5077 13.5821 7.9613
4.5668 5.7653 19.1756 -2.5442 1.5439 1.9274 9.6802 -4.4296 -1.3113 -5.0856 -4.8948 1.9649 0.4495 1.1267 -1.0318 0.0226 5.2291 1.3824 -1.1072 1.7862 3.7010 2.4525 0.3986 1.3175 0.4136 12.1429 15.2441 7.3890 11.6055 6.8695
1.6463 1.7686 16.2527 -1.9492 0.7824 5.6433 -3.0833 -5.3229 -1.7936 -3.7196 6.0699 13.3054 -0.1244 -0.2094 0.9729 0.7873 3.1334 -0.3130 -1.2016 4.4642 1.3469 0.7814 -0.3928 -0.1135 -1.9083 8.4865 11.8274 3.5634 8.9967 4.4647
-2.9224 -2.5033 1.8252 -2.6032 -1.4565 7.2513 -12.0612 -5.2006 -2.6162 -2.6020 10.8026 4.7932 -0.5069 -0.7546 1.6887 -0.5030 3.5538 -1.3504 -1.8359 3.7881 2.6956 0.9287 -0.6832 -1.7840 -3.3775 5.7155 10.9294 2.3030 8.2338 2.6017
-5.7576 -8.3111 -12.7476 -0.7865 -2.2277 7.4729 -11.6642 1.0243 -1.8681 -2.4487 7.3177 -15.5260 1.3380 -0.0338 0.3962 -2.9698 7.8539 -0.8558 -2.5633 0.4257 2.4966 2.0363 -1.1703 -3.3666 -4.3168 3.7244 10.5936 2.7818 8.1089 2.8553
-5.8060 -9.2604 -16.7008 2.2964 -1.3724 7.2027 -7.1192 5.2440 -0.2867 -2.2803 2.5158 -16.8155 3.8220 0.8033 -0.4129 -4.2901 12.2536 0.4405 -2.5150 -0.1866 -1.2131 2.7033 -1.6630 -3.4176 -4.8817 3.0768 9.3747 2.4452 7.3447 4.1732
-4.4301 -0.9412 -9.4759 0.2746 -1.1058 5.3870 -4.5828 -3.7448 -0.8377 -1.3798 1.5481 1.4653 1.1689 1.1574 1.3809 -3.9245 7.6088 0.3359 -1.4684 2.6665 -3.2012 1.5695 -1.2746 -1.3844 -3.4992 6.0097 9.6199 2.5916 8.0195 5.1196
-2.6255 8.7595 1.9520 -3.8044 -1.3423 1.6086 -1.4371 -12.4456 -2.0025 -1.2194 0.4549 10.2049 -3.1706 2.1993 3.0461 -0.6770 -1.3095 -0.0105 0.2953 4.5981 -1.4920 0.5025 0.6958 1.5394 -0.3359 10.0388 12.2173 5.2194 11.6466 5.8566
-1.5150 11.9717 8.3327 -3.6034 -0.7287 -1.7252 3.5943 -7.8615 -1.3504 -2.3300 -3.7872 3.4910 -1.8362 3.7616 1.3677 3.7385 -1.6577 1.2662 1.5154 3.9308 -0.2198 1.6772 2.9807 2.8568 0.8852 8.5499 13.0536 7.0464 14.3821 5.7724
-2.0774 9.1792 3.8150 -2.3824 -0.3615 -2.6074 2.8038 -1.8504 -0.9361 -2.9669 -4.9003 -1.5072 1.7304 4.1033 -0.4856 3.2231 3.4364 2.2107 1.7183 3.6402 -0.7707 3.2735 4.0327 2.4300 -0.6466 2.9785 10.6636 5.3913 13.0458 4.4327
-3.7268 2.9126 -4.4945 -3.1198 -1.2725 -1.1169 -3.9590 -3.0187 -1.8052 -2.4403 -0.6695 -3.8371 1.8762 3.4534 1.0997 -3.0432 4.6750 1.6626 2.2420 4.8660 -0.5029 3.9947 4.5475 3.0099 -1.2377 2.7169 10.4322 5.2011 11.6592 4.2679
-5.2694 -2.5929 -3.6680 -2.0705 -1.8086 2.0307 -5.4282 -3.7016 -1.6075 -1.8444 0.8008 -8.0918 1.4511 3.1538 2.7187 -8.0706 4.9082 1.5298 2.8516 4.6367 0.5747 4.8831 4.6621 4.1472 -0.7530 6.4487 12.7010 7.8816 12.0567 4.9590
-5.4692 -3.8865 3.1688 0.2675 -1.4664 4.7286 -2.0107 -2.8951 -0.4827 -1.8318 -1.3474 -6.4268 2.4871 2.6869 1.6092 -8.1134 7.3590 1.7477 1.8880 2.5101 0.3502 4.6945 2.7672 2.6445 -2.5814 3.7392 9.9617 4.8439 8.3133 1.5519
-4.1190 -4.3262 0.8862 -0.4291 -1.7902 5.1043 -5.2916 -5.5302 -0.6216 -1.8938 1.6044 1.3569 1.8689 1.5454 1.6789 -6.2266 7.6386 0.9550 0.9005 2.2019 -0.6740 2.5721 0.2046 0.2550 -4.8490 -1.8193 4.0358 -3.2487 2.1826 -3.7119
-4.2468 -5.8289 -11.6135 -1.9687 -2.2998 4.6895 -12.2954 -6.1240 -1.2636 -1.0640 7.4719 4.2854 0.1782 1.1075 4.3718 -4.5068 5.4685 0.5612 2.4511 3.8239 -1.1870 1.5766 0.3353 1.1505 -2.9314 0.3758 5.2254 -2.8785 4.4116 -1.6844
-7.0915 -3.4655 -17.3260 -0.6077 -2.0649 4.3189 -10.2808 -1.6588 -0.8310 0.3689 5.6768 -1.9083 0.7999 1.8679 4.9884 -2.5885 5.2923 1.7078 4.5710 3.1089 -1.3320 2.8771 2.0121 3.5708 0.8019 4.6893 10.9583 4.7126 11.7988 5.2307
-7.4081 3.1918 -6.2752 0.2534 -2.5857 1.9702 -2.2337 -2.2919 -0.4853 0.5341 -0.6520 -10.0577 2.1359 2.0966 2.4876 -1.7203 6.9171 2.3223 4.1675 0.1385 -0.8794 3.7584 1.7456 3.6090 0.9718 2.4101 10.3488 3.8844 11.1305 5.3956
-2.6325 6.4580 7.0325 -2.2381 -3.6188 -0.9810 0.1569 -9.4020 -1.1275 -0.9441 -1.0905 -9.1303 1.3522 1.0544 1.0240 -2.7484 7.3822 1.1015 2.4649 -0.5776 -0.4734 3.2031 0.1345 2.3505 -1.1689 -0.7771 5.4266 -4.1377 5.7848 -0.1030
1.2590 2.8765 5.8271 -3.8091 -2.4862 -0.7567 -1.6231 -9.9178 -1.2332 -2.2725 1.3383 -1.2001 0.3208 0.4142 1.3478 -4.2920 6.8140 0.0741 1.7886 1.3620 -1.9709 2.5821 -0.5109 1.8056 -1.8286 -0.5711 4.4446 -5.5207 7.0992 -1.0952
0.0819 -0.4942 -0.7146 -2.1269 -0.1466 1.4861 -1.4565 -2.7933 -0.3759 -2.5881 -0.0725 -0.6189 0.8404 1.0713 1.6208 -5.8620 7.1612 1.0117 1.6872 2.9819 -3.2353 2.8195 -0.3173 0.9445 -1.6534 -1.4433 5.9179 -1.5069 10.9797 1.5349
-2.7168 2.1569 3.3074 -0.5280 0.1894 2.5131 -2.4548 -0.1557 -0.1017 -2.2268 -0.5866 -5.9959 1.3607 1.6973 2.6445 -6.7195 9.0383 2.4947 1.2859 3.7567 -0.7891 3.9895 -0.0201 -0.0805 -1.9980 -3.1108 5.5125 -1.7083 9.1521 0.5781
-3.3607 4.3978 10.7925 0.3592 -0.5784 2.9663 -4.7922 -2.1581 -0.3625 -1.6715 2.1471 -2.1633 1.3626 1.3910 3.6374 -4.8030 10.5410 2.2822 0.6683 2.7910 1.5891 4.6240 -0.1231 -0.0876 -2.5172 -2.4763 4.4158 -5.0188 4.5090 -2.9959
-2.3601 -0.2505 7.7494 2.1749 -0.2561 4.0999 -1.8784 0.2187 -0.0145 -2.3008 0.7371 9.3392 1.7251 0.6260 1.1718 -2.1640 9.1405 0.7336 -0.7142 -1.7025 -0.8972 2.8483 -1.6461 -1.1760 -4.2739 -1.7338 3.8989 -6.3432 1.2258 -5.1774
-1.3673 -4.5048 -1.8739 2.6175 -0.1470 4.3575 3.3229 5.4907 0.2857 -4.2820 -4.6382 14.1247 1.9404 -0.1800 -2.7208 -2.6166 6.3056 -0.1472 -2.8261 -5.6611 -3.9716 0.0998 -3.7683 -4.4510 -7.0641 -1.9592 3.3876 -6.1243 -0.7691 -6.0915
-0.4886 -0.7872 -7.1199 0.0825 -1.1242 3.0927 2.4908 7.3726 -0.1879 -4.6850 -5.2670 11.4770 1.8602 -0.5326 -2.3032 -3.3177 6.1796 0.0201 -3.5588 -3.5868 -2.9628 -0.6049 -3.8403 -5.6903 -6.8727 -0.2390 4.1159 -4.7717 0.4584 -5.0597
0.2118 5.1351 -8.0101 -1.8510 -1.3381 2.2150 -1.0489 7.6916 -0.4037 -2.4699 -1.6627 11.5878 2.2411 0.1508 1.3211 -0.8336 8.1499 0.1611 -1.8241 1.2031 -1.3783 0.1758 -1.8248 -2.6694 -2.7706 3.4534 7.0358 -0.8605 5.5236 -0.7119
-0.4032 5.6368 -9.0791 -0.6092 -0.7401 1.9745 -0.3565 8.6037 0.1831 -0.9810 -1.2667 10.7007 2.4572 1.1551 2.3412 0.5582 7.9011 0.1256 0.0797 2.3821 -2.1786 -0.1382 -0.6019 0.0013 -0.0915 4.9516 9.2583 2.7914 8.8570 3.2429
-2.2594 2.1713 -7.0853 1.3466 -0.9658 0.9520 1.4472 5.2832 0.5276 -1.4541 -3.3285 -4.6216 1.8020 1.0685 0.2566 -2.0034 5.6282 0.0833 -0.3022 0.4638 -3.1845 -1.4430 -1.5102 -1.5433 -2.3535 1.8953 7.3801 1.0841 6.0831 1.9347
-3.5980 0.3427 1.7223 0.8335 -1.3189 0.3222 -0.5673 -4.0538 -0.2889 -1.2146 -1.9460 -23.2487 0.5125 -0.0841 -1.0119 -3.8752 4.1455 -0.8834 -2.1299 -1.4055 -3.5046 -2.0630 -3.0294 -4.8709 -6.2144 -1.9660 3.1845 -4.2521 0.9368 -2.7617
-3.2342 1.9733 10.7246 -1.8162 -0.7084 1.6744 -3.3332 -12.0952 -1.7770 -0.0374 2.0013 -18.4005 -1.7972 -0.8353 -0.0053 -2.3272 2.3361 -2.6696 -2.7304 -2.4412 -3.5527 -1.7653 -3.1141 -5.7904 -6.6159 -1.0016 2.4657 -5.1233 0.6837 -4.1529
-1.3770 2.8163 12.5123 -3.7448 -0.2210 3.4357 -3.0849 -12.9643 -2.4412 -0.0395 3.6192 1.2816 -4.2949 -0.3896 1.8552 0.1757 -0.1374 -3.3710 -1.4370 -1.7010 -2.4535 -1.0387 -1.5825 -3.8616 -3.7280 3.0239 6.1420 -0.1166 5.7990 -0.5741
-0.4320 -0.3047 9.5324 -3.5693 -0.3791 4.8994 -3.5741 -9.7885 -1.7734 -0.5729 3.7772 3.3990 -4.4542 0.0137 3.1224 1.4641 0.3380 -2.9988 -0.8050 0.5375 -2.0595 -0.6050 -1.1027 -2.4035 -2.9904 2.2521 6.7639 0.9787 7.5949 1.0692
-3.0247 -3.6071 4.9295 -2.5593 -0.2352 7.4168 -7.8306 -6.8394 -1.0800 -0.2055 5.3380 -8.0460 -3.0143 -1.1523 3.1168 -0.1844 2.5583 -3.4363 -2.7318 0.7814 -5.3294 -1.7255 -3.5870 -3.6323 -6.7118 -3.8987 0.9981 -5.8068 2.3073 -3.2908
-6.8325 -3.0414 -3.6968 -2.2273 0.1025 8.7108 -9.5008 -4.4232 -1.4253 -0.0223 4.7014 -7.0609 -3.6034 -3.0012 2.3008 -4.7250 0.8147 -3.9613 -4.5898 -1.3243 -8.6407 -3.7055 -5.8605 -4.7183 -9.2405 -6.1484 -1.8619 -8.6854 0.0554 -6.0946
-7.6865 1.2406 -13.6171 -2.9473 -0.2674 5.4136 -4.1875 -4.0456 -2.3686 -0.6650 -0.9376 0.3033 -5.9389 -3.5538 1.8720 -6.8615 -2.5822 -2.7139 -3.3455 -1.4220 -6.3036 -3.7646 -4.4347 -2.4620 -6.1809 -0.6239 4.0347 -0.8576 6.9058 -1.2664
-5.8939 6.5396 -14.8295 -3.8272 -1.1297 1.0323 1.5166 -6.7219 -2.7851 -0.6879 -5.5757 -4.1081 -5.9568 -2.8058 1.9418 -3.3536 0.0641 -1.0889 -1.0391 0.8157 -1.2456 -1.7680 -1.8319 0.5668 -1.8944 4.1325 9.1459 5.4501 12.2872 3.8197
-3.1044 7.0137 -5.4824 -3.9861 -1.5320 1.1412 2.2753 -9.9509 -2.1996 0.4497 -4.0738 -10.9282 -3.6182 -1.8331 1.9872 0.7782 5.9931 -1.2359 -0.1915 2.0195 -0.3947 -0.6619 -1.2696 1.4580 -0.7132 2.0087 6.5394 1.5759 9.2858 2.6618
-0.5089 2.2805 3.2211 -4.3110 -1.0763 3.6912 0.6502 -12.8645 -1.7669 1.7398 0.1962 -6.6303 -3.2849 -0.9734 2.4388 1.6012 5.5446 -2.1422 1.0422 3.3135 -3.2779 -1.3148 -0.9206 2.7011 -0.1958 -0.4169 3.7015 -2.6806 6.7742 1.3142
-0.9132 2.0977 2.5184 -4.5962 -0.3534 3.2654 -1.1148 -12.8954 -2.3031 2.8425 2.3655 0.0725 -4.3525 -0.6041 3.1275 1.7814 0.8633 -1.7840 3.3350 6.0496 -4.0952 -1.4734 0.6953 5.3299 1.3596 2.6924 5.3332 -0.7089 9.5784 3.8627
-3.4674 6.5080 -4.0673 -2.9004 -0.2614 1.3199 -2.8754 -5.5860 -2.5033 4.1846 2.3392 -0.3257 -2.0914 -0.9549 2.9935 2.7026 1.5924 -0.6072 3.7774 6.3371 -0.9923 0.0146 1.5125 5.9992 1.8475 6.1939 6.2591 0.2476 11.0273 5.0523
-3.5833 1.6203 -9.5564 -1.2861 -0.6976 3.7188 -4.8341 1.5125 -2.0900 5.7053 3.5860 -1.3868 0.9033 -1.1862 2.9483 2.2669 5.3271 -0.5965 2.3718 3.2748 1.7372 1.3949 0.9071 4.7265 1.2438 5.6139 5.4291 -1.9466 9.6582 3.6329
-2.5606 -12.0665 -11.4617 -2.4672 -0.9373 9.1810 -8.4313 -0.1009 -2.3935 6.7874 7.3565 -1.7887 -0.2581 -0.6539 4.2089 0.0707 4.7527 -1.6834 2.0190 1.3878 -0.4346 1.3594 0.3112 4.2615 0.7225 3.0650 5.5128 -1.4205 9.9459 3.4044
-4.5140 -16.0097 -6.9886 -2.6101 -1.1411 9.7124 -11.1438 -0.5243 -2.4518 6.7848 8.5511 -12.8052 -0.5456 0.4008 4.8084 -1.9729 4.7093 -1.5730 2.4995 1.7638 -5.0298 1.5971 -0.1940 3.6742 -0.4519 -1.1323 4.1131 0.3723 10.7961 3.4184
-6.4838 -3.8178 5.2446 0.2797 -1.6148 3.9575 -7.0169 4.8020 -1.0603 5.8514 3.2965 -26.5505 3.7520 1.6136 3.1268 -1.5154 9.5173 -0.0734 2.0788 2.0174 -5.7148 3.2992 -0.7936 2.0259 -1.5287 -6.1849 1.0781 -1.2881 10.1023 2.0152
-4.3674 9.5781 14.5567 0.9286 -1.7721 -0.9954 1.0771 2.2518 -0.3202 5.0587 -2.8448 -16.2370 4.7573 2.2075 1.2929 1.5859 10.3813 -0.0180 1.4663 2.0454 -3.2915 4.1213 -1.0157 1.5817 -0.9215 -6.7266 0.9046 -3.7112 9.9570 1.2455
-1.2912 10.1000 9.8408 -1.4657 -1.4076 -1.2024 3.1961 -7.3465 -1.2973 4.6584 -3.2184 13.6075 -0.4909 1.6170 1.2367 3.2247 3.1677 -2.2258 1.4707 2.5518 -3.8633 2.3699 -1.5732 2.1034 -0.6803 -3.4323 1.8882 -4.1380 10.0749 1.1187
-1.8417 1.4935 -0.4118 -1.5198 -0.9653 1.6157 -1.8181 -8.9497 -1.6060 3.9092 0.1783 26.3798 -3.3092 1.1353 2.0542 0.6089 -2.0901 -3.8277 1.2996 2.9949 -6.9882 0.4874 -2.9797 0.7078 -2.9611 -3.4060 -0.2911 -5.0685 8.1989 -0.2324
-5.2742 -3.1231 -3.7800 0.8633 -0.6694 4.9600 -6.5795 -4.2804 -0.2869 3.2549 2.3646 11.8225 -0.5343 2.0341 2.5245 -2.4195 1.0131 -3.0217 0.6329 2.8451 -7.3449 1.1360 -3.6488 -1.7603 -5.3939 -5.6785 -2.1201 -6.5443 6.3401 -1.9786
-7.5353 -0.7199 -4.4929 1.8869 -1.0725 6.0890 -8.0588 -0.3270 0.8711 3.5306 2.9614 -3.8892 2.2439 3.0008 2.4816 -1.3545 6.0914 -1.4584 0.0497 1.8913 -4.9340 3.0720 -2.6239 -2.3101 -5.1116 -3.8226 0.3198 -5.2031 7.4471 -2.3103
-5.9197 -0.1837 -7.0431 1.4305 -2.1124 5.0042 -8.0280 6.0025 0.9484 3.7604 3.7522 -4.6490 2.9113 2.5885 2.2101 2.3840 6.6643 -1.1474 -0.0538 0.8251 -3.3653 3.2130 -1.4841 -1.6170 -3.1290 0.1992 3.5359 -1.8367 9.7613 -1.1464
-1.6690 -4.7486 -4.3864 0.3733 -1.8972 5.9043 -5.9285 8.3772 0.6004 2.9588 4.0647 0.0097 2.7942 1.6761 1.8072 4.1284 5.1721 -2.0684 0.0356 0.6209 -2.9653 1.1092 -1.7669 -2.3123 -2.4603 0.5104 4.2499 -1.1555 9.0499 -0.1688
1.4411 -6.0962 5.4053 -1.1385 -0.2222 8.2846 -1.0316 -1.3378 0.4091 1.8064 1.9874 2.7225 1.6338 1.4384 1.0347 1.7546 5.0471 -2.8777 -0.1961 0.9013 -2.3231 -0.6147 -2.5586 -4.0730 -4.0933 -0.7332 4.5524 -3.4735 5.1971 -0.9996
2.0733 -0.3466 14.0060 -1.0410 -0.1700 5.7960 3.3464 -8.4814 0.5093 0.6957 -1.7022 7.1882 0.9769 2.0614 0.5423 -1.6578 5.5727 -2.1052 0.2121 2.0410 -0.4755 0.5519 -1.4185 -3.7411 -5.0166 2.0148 7.3656 -2.5208 4.8145 -1.4582
2.1906 4.7735 12.5245 1.2549 -2.5272 -1.1508 3.7061 -0.1741 1.0026 -0.7660 -3.8624 7.3918 4.2989 3.4185 1.2909 -1.5026 9.5163 0.5161 2.3721 4.6377 3.6700 4.7165 2.0134 -0.1683 -2.1723 6.0556 11.5863 3.7169 11.2987 1.7807
1.2478 3.9419 -2.8176 2.6171 -4.1066 -4.0918 -1.0006 11.0453 1.9434 -1.6840 -2.2011 -5.6152 10.0762 4.4687 2.5145 1.5610 18.0511 2.9097 3.9712 5.6176 6.7743 8.5927 4.3508 2.8027 1.4252 4.1101 11.7023 6.5067 15.7355 5.0494
-3.6477 0.8981 -20.7395 1.7100 -3.7423 0.3896 -9.7698 13.4470 2.6024 -0.5226 3.0583 -15.5194 11.6170 3.9202 3.6108 2.5653 19.1776 2.5611 2.5531 3.3943 2.4279 7.7719 3.3000 2.0288 1.0052 -1.9776 5.7069 1.2570 11.3481 2.5467
-9.1310 -0.7337 -21.3780 0.7795 -3.3013 5.8681 -15.9881 10.4110 1.9748 1.5561 7.8725 -4.3722 6.7169 2.5280 4.9127 0.1315 6.8299 0.3274 0.5864 2.5810 -5.6896 3.2750 1.6375 0.7919 -1.0335 -3.1166 0.9669 -2.5431 7.0258 -1.7225
-8.1011 -0.7980 -7.4314 1.2475 -2.8852 5.4183 -11.9819 5.1723 0.8220 1.6679 6.9411 8.6352 1.5240 2.0677 4.5061 -1.7474 -2.7587 -0.3343 0.7192 4.7397 -6.5030 0.7780 1.9892 1.9379 -0.1785 1.2320 2.6758 0.4943 9.8388 -0.7214
-2.0308 0.6259 0.2429 2.1544 -1.6423 0.5695 -2.0032 -0.3062 0.6590 0.4010 1.4154 2.5479 0.8870 2.6291 1.3443 -0.6222 0.7244 1.3105 1.1284 5.1306 -0.6450 1.3660 2.4888 2.3122 1.3466 3.2968 5.0831 2.3873 12.6498 3.0969
2.0817 2.8784 0.7266 1.6179 -1.0155 -2.3433 2.7090 -2.6321 0.8447 0.8869 -1.6955 -5.5764 1.9510 3.3661 -0.2061 0.7418 5.8001 2.6557 0.8077 3.7103 2.8508 2.2048 2.0251 1.1086 0.9616 2.4165 4.6207 0.8369 11.7876 5.0794
2.6352 5.5323 6.7217 -1.0248 -1.8065 -1.3433 0.7144 -3.1719 0.0834 2.5767 -0.0928 -0.7848 1.2369 4.0870 2.4560 -0.0633 5.9649 2.6002 1.7657 4.8430 3.9856 3.6703 2.6470 2.0907 1.4009 4.3236 6.1374 2.6375 12.3738 6.2603
1.2047 8.4321 13.2451 -3.3017 -2.2185 0.8934 -1.1781 -3.5857 -0.8541 2.4871 1.4191 1.6506 -0.0750 4.4979 4.5988 -0.8218 7.1991 2.3990 3.5889 6.8920 6.3536 5.9392 4.0511 4.0570 2.9106 7.9612 9.8239 6.1006 13.2080 6.7043
-0.4998 8.3640 10.4620 -2.7779 -1.9839 1.9942 0.0277 -2.0877 -0.8788 0.9753 -0.1764 -3.7467 -0.1812 4.1936 2.8436 0.9583 9.3814 2.6171 3.9388 6.1877 6.9421 6.1825 4.0198 3.1825 2.2814 8.4616 10.6337 5.3636 10.7307 5.4131
0.1580 2.7149 2.8825 -1.2327 -2.8164 1.8584 0.9253 0.4107 -0.5839 0.2125 -1.1680 -1.5402 0.3051 3.4305 0.6348 3.6511 8.4936 2.5938 3.4150 4.7396 4.4276 4.4021 3.3593 1.6896 0.5872 6.9990 9.2440 3.7068 9.1524 5.1372
1.0313 -4.9647 -5.8827 -0.8749 -3.8605 3.1429 -3.1844 3.1924 -0.7388 0.3865 2.6041 7.4170 -0.0205 2.2806 1.2709 4.2421 6.4497 1.6621 3.6403 4.4389 2.3917 2.8046 3.0187 1.8848 0.2467 6.0061 8.0200 3.8512 9.8553 6.2522
-2.4170 -8.3996 -14.7339 -0.2625 -2.8596 7.1643 -9.7399 8.0313 -0.8644 0.9947 7.3011 7.6769 -0.9961 0.9044 3.5431 3.0318 5.5352 0.3355 4.1162 3.8251 1.3750 1.4949 1.6625 1.2525 -0.1903 4.7050 5.5022 1.8876 8.0954 5.2618
-6.5196 -3.4338 -11.3994 1.3094 -1.0929 8.9520 -9.3570 9.8860 -0.3887 1.8487 5.6384 -1.3968 -0.8671 0.5782 5.0162 2.5734 6.2787 0.4749 4.2526 3.6477 0.6365 1.3441 0.4195 -0.0074 -1.0717 4.6254 3.4525 -0.7437 5.8463 3.2048
-5.0926 6.5659 6.6851 1.2166 -1.1559 5.0946 -1.5662 2.4377 0.0024 2.2533 -0.3138 -10.4328 0.5870 1.6117 5.0365 3.1160 9.9229 2.5199 4.4779 5.3610 2.1978 3.7069 1.8111 0.9715 -0.0467 7.4426 5.7722 1.0826 8.3198 3.8067
-0.6574 8.8419 15.6936 -0.9744 -1.9446 1.6364 2.2126 -5.9818 -0.4742 2.1245 -1.7470 -12.1536 0.9254 2.2519 4.8552 3.1043 12.9323 3.8948 4.6234 6.4379 4.8118 5.6946 3.6485 2.6586 2.2311 8.9423 9.0884 3.7505 11.2390 5.2716
0.7838 -0.6978 3.7330 -1.5548 -1.4859 3.3002 -2.1839 -3.5380 -1.0136 2.1275 2.0968 -1.4167 -0.7217 1.7429 5.3687 2.2617 9.4954 2.7629 4.0109 4.7413 3.6599 4.3438 2.6260 2.3651 2.7145 5.8531 7.9261 1.7596 8.4876 4.0054
-1.4819 -6.1532 -6.5165 1.3071 -1.0992 5.0007 -5.8609 5.1204 -0.5494 1.8532 4.0507 13.8696 -1.4704 1.3247 5.3096 0.5546 4.0015 1.1794 2.9245 2.8359 0.1303 2.4062 0.8119 1.2462 1.5416 2.6622 5.3318 -0.6898 4.3900 2.5336
-3.8387 0.9067 -1.1331 5.0691 -1.8470 3.0169 -3.6947 10.4272 0.4712 0.8970 1.9354 17.5620 0.4821 1.6793 3.6932 -2.0410 4.8974 1.5287 2.2647 3.1918 0.4991 2.6851 1.0478 0.5398 0.8991 3.6076 6.2353 0.7986 4.9569 4.1547
-3.0365 4.0810 4.6418 6.6875 -2.0400 2.2087 -1.1274 13.4577 1.1584 0.6321 0.5323 10.7934 2.6026 2.2659 2.0667 -3.8183 9.0287 2.3315 1.8476 4.0420 3.3395 2.6478 1.3170 -0.6716 0.4564 4.4228 7.0921 1.3366 6.5843 4.6085
0.2152 -6.1850 3.0182 4.7126 -1.3471 5.9879 -2.6369 14.3416 1.1406 1.9608 2.6622 7.4909 2.3265 2.6702 2.2127 -3.7257 9.2205 1.5680 1.4137 4.0054 1.8172 0.4998 0.0656 -1.8049 -0.4525 0.0770 3.8917 -1.5598 5.4193 0.8521
1.2376 -14.2573 -1.3812 0.6546 -1.3683 9.5988 -6.5011 10.6856 0.6271 3.6149 5.7505 8.8586 1.0828 2.9609 4.0368 -3.2730 7.1305 1.1005 2.4844 5.3498 -1.8533 -0.3513 0.3043 -0.5091 0.2366 -4.5458 1.8649 -1.4698 6.2691 -0.7727
-2.5659 -8.5363 -11.7009 -0.1084 -1.7661 7.7621 -9.4356 12.3586 1.0446 4.1070 5.7089 5.3511 2.0772 3.0924 5.6669 -3.5046 7.3356 2.9710 5.0382 7.8346 -0.2372 2.7039 3.0620 2.6097 2.5982 -2.7153 5.8478 2.9923 11.0242 2.3843
-6.1160 3.8004 -19.9117 3.9671 -1.2445 1.9122 -6.8992 23.1369 2.8584 2.9650 0.7507 -1.2889 5.5654 2.7184 4.6335 -2.9929 11.1441 5.3070 5.6865 7.0049 4.9879 7.2070 4.8926 3.8281 3.4361 2.0355 11.3280 4.9470 13.3422 4.0274
-2.9744 14.4878 -6.2579 5.2579 -0.4642 -2.8612 3.1236 21.1056 3.2458 0.7685 -6.1147 -1.0523 7.3343 2.0820 1.5758 -0.0599 16.4645 5.8986 3.8140 3.1717 7.4945 9.5282 5.0153 2.2777 3.1693 3.8373 13.1271 3.2337 12.0881 3.6751
2.7656 18.9822 20.4408 -0.5598 -0.5214 -2.8594 11.2877 -2.4334 0.6640 -0.5931 -8.1117 0.5711 4.1177 2.1342 0.7307 3.4695 17.2579 5.0149 2.9963 1.7132 6.3813 8.6030 5.6744 1.0743 4.3779 3.2620 11.7531 2.4356 12.2597 5.4050
1.9267 13.1939 30.9420 -5.5577 -0.9863 2.2599 6.9510 -17.8668 -1.6211 0.2472 -2.5725 -4.0100 -0.6870 2.7399 3.3269 3.5108 11.3346 3.1948 3.8417 3.2013 3.2418 5.8134 6.0663 1.6151 4.9386 1.5994 9.4216 2.8218 12.8665 5.7584
-3.5664 1.5268 18.7194 -3.2432 -1.0345 8.0617 -3.8508 -7.4598 -1.1998 2.0169 4.2917 -1.3359 -2.0207 2.6041 5.4854 0.8863 5.4845 1.2632 3.7201 4.3230 0.2544 3.6684 4.7700 2.0878 2.9057 -0.1585 8.2946 2.8158 10.7406 2.4179
-5.8622 -5.7625 -1.7811 1.4329 -0.9639 8.8148 -9.2862 6.8070 -0.0231 2.6878 6.2062 8.3350 -0.3556 1.7509 4.8646 0.3086 5.2619 1.2943 2.7854 5.0930 0.8044 3.8393 3.8231 1.6493 1.2865 0.3339 8.8133 2.7980 8.9303 0.7559
-5.9585 -5.6874 -16.5268 3.0437 -1.1880 5.2087 -10.5611 8.3613 0.4068 2.3955 5.3882 1.2452 1.5626 1.6211 3.5468 0.8544 8.4500 3.3345 2.8873 6.4607 3.7678 5.3374 4.3803 1.2627 1.1802 1.5614 8.2599 1.8166 9.3583 1.4554
-6.5397 -2.2478 -17.4153 2.7299 -0.7055 2.9024 -11.2124 6.2783 0.8443 2.3377 5.1186 -13.1580 2.6833 2.5405 3.4383 -1.1652 10.2736 4.4390 3.5272 6.8097 4.8056 5.6504 4.7292 1.2709 0.5137 1.3994 6.3073 -0.7311 8.3308 0.2029
-4.1149 1.7820 -7.5823 1.3201 0.7172 3.0558 -5.9639 3.9036 0.9336 2.2213 2.3743 -6.5767 1.6192 3.3637 3.3600 -2.4631 8.5562 3.4495 3.6685 5.4134 4.7079 4.3522 4.6054 1.6407 0.5297 2.4821 6.4249 -1.9512 5.7957 -0.8781
0.6255 6.3474 2.9470 -2.0794 0.8718 1.9549 4.4176 -4.2984 -0.3141 1.4677 -3.4023 4.3252 -1.8040 3.3628 1.8530 1.0526 5.5322 2.3709 3.9381 4.4509 5.8184 3.3987 5.2726 2.7961 3.1661 4.6448 9.0652 0.4487 7.2884 2.6828
2.6046 10.7980 9.2458 -5.2997 -0.6403 -1.0926 8.6914 -10.5287 -1.7413 1.2480 -5.5735 -4.6502 -3.8667 2.7729 0.1521 4.8442 5.1497 2.3306 4.4115 5.5444 6.0999 3.4984 6.0033 3.8804 5.3101 3.5964 11.1750 3.8068 12.5807 8.2753
2.7835 12.3780 9.0139 -5.3730 -0.8899 -2.6798 3.9957 -5.6297 -1.7554 2.1172 -1.9742 -10.9569 -2.5501 1.8237 0.3264 3.4282 7.0311 2.1618 3.7420 6.7022 4.9142 3.3927 4.9394 2.9297 3.5577 0.6670 11.1550 2.9957 13.6116 9.8391
3.2419 9.2344 2.5944 -3.0403 0.3536 -0.8451 -1.1963 1.1726 -1.0985 2.2910 1.7158 3.0570 -1.5330 0.5664 2.1170 -0.5007 7.2486 0.8992 2.1628 5.5493 4.5078 2.4382 2.4273 0.3675 0.2343 1.3737 9.6563 -2.2825 8.0212 6.0484
1.7747 3.2716 -3.1724 -0.7734 -0.1422 2.4003 -2.8546 1.3530 -0.9651 1.2113 2.6904 9.2189 -2.5116 -0.4675 3.3079 -2.2270 6.5471 -0.5110 1.5617 3.6807 4.7184 1.4793 0.8233 -1.0969 -0.7731 5.9403 8.7086 -5.5809 3.2397 1.6426
-0.2764 -2.2923 -6.3350 1.0117 -2.2053 3.8422 -3.1592 4.5829 -0.5645 0.9402 2.6161 -6.5853 -1.3349 -0.6384 2.3777 -2.5398 9.3515 -0.5196 1.6659 3.0241 5.3384 1.5297 1.1246 -0.5119 -0.0739 8.8191 9.8401 -2.9388 3.6897 1.2980
0.6754 -5.4047 -9.2157 3.2225 -2.5297 3.3392 -2.8146 15.2299 0.6941 2.1521 2.3546 -10.6678 2.2967 -0.2845 0.5891 -3.4970 12.8079 0.3841 0.6580 2.2665 7.1810 2.2415 1.7334 0.8148 -0.2339 6.2038 11.0901 0.9679 5.8971 3.3581
1.7975 -3.3373 -5.4322 5.1171 -1.3050 2.9585 -2.2417 18.8203 1.3638 2.8711 2.6517 11.4378 2.7029 -0.1783 0.6610 -3.4883 10.8294 0.4725 -0.5628 1.6252 8.1541 2.6986 1.3881 1.9242 -0.6845 1.9562 9.9479 0.8366 6.7011 3.3057
-0.3583 4.5311 4.8568 4.7148 -1.1941 2.6416 -2.7099 9.6989 0.6837 2.2125 3.5859 23.0196 -0.3911 0.0101 2.8255 -1.0833 7.6034 0.2349 0.4702 3.7600 7.6645 3.5346 1.3833 2.9631 0.6215 3.1694 8.4949 -1.3865 6.5341 1.9724
-2.4535 9.8605 6.0088 2.3918 -1.9586 1.9667 -3.8262 1.3212 -0.0072 1.8576 3.6753 5.6176 -1.6900 0.8861 4.8823 1.2972 9.6038 1.2591 3.0174 7.2136 8.7999 5.1491 2.8089 3.9890 2.6580 8.9245 9.5273 -1.9312 6.0898 2.6981
-1.0337 4.8639 -2.6207 1.2270 -1.8689 2.4519 -4.6056 1.3875 0.2544 2.6202 3.4065 -10.1354 -0.4710 1.5333 5.7028 1.0118 13.3594 2.7891 3.8634 7.4242 10.4288 5.8521 3.9165 3.9562 2.7651 11.1048 10.9131 -1.9326 5.0951 3.4309
2.1993 -2.3409 -3.4711 1.8953 -1.3777 3.2943 -4.2559 5.0248 0.8822 2.7608 3.6583 -4.5436 0.8786 1.1522 5.4761 -0.4451 15.1353 3.6423 2.5922 4.9391 9.0500 5.5289 3.6051 2.6467 1.7382 7.3802 10.0058 -2.6598 4.3116 1.4414
4.0417 -1.1174 4.1092 1.6127 -1.5164 2.1398 -2.0759 8.2942 1.1202 1.2225 2.1235 5.0615 2.5594 0.9532 4.4785 -0.5134 16.4276 4.5104 1.9942 4.3305 6.8969 6.1754 3.6780 2.2981 1.8476 2.7950 8.2671 -1.8639 5.6333 -0.5218
2.6536 3.6701 7.3258 0.6642 -1.8191 0.2891 0.8044 9.8993 1.1292 -0.9019 -2.1381 5.6457 4.3930 1.5710 3.3803 -0.9347 15.6531 5.2864 2.8976 5.3816 6.6407 7.0245 4.2066 3.4834 1.2158 0.0116 7.2340 -0.3172 7.6870 -1.0353
-0.7254 4.3418 6.0440 1.3135 -2.1120 -0.0947 2.4955 7.7625 1.1614 -2.6798 -5.7357 4.8083 4.0301 1.4806 2.4049 -4.0892 11.1269 4.4837 3.1814 4.0402 5.5186 5.6528 2.8177 3.3022 -2.3247 -1.5825 5.8984 -2.1796 6.3586 -3.0591
-2.1425 0.9276 3.5124 0.4216 -3.0118 1.0761 1.8231 1.7856 0.3670 -3.4804 -5.5952 6.8784 0.7298 0.2710 1.3926 -7.7086 6.7439 2.4558 2.3517 1.4760 1.6270 2.6614 0.2891 1.2730 -5.6509 -2.3575 3.5589 -6.4760 2.6276 -6.5617
-1.1117 -5.3754 -1.5808 -3.4718 -3.7508 3.4682 -2.2426 -2.5693 -1.1757 -2.3927 -1.8937 6.6344 -2.6394 -0.1535 1.7160 -9.4719 5.6048 1.3525 2.2681 2.5013 -2.1321 0.6040 -0.1702 0.8003 -5.6873 -4.1782 1.5164 -7.7261 2.3046 -7.6403
-1.2957 -9.0284 -3.9438 -3.2211 -3.2459 4.3674 -6.6753 1.6790 -1.0039 -0.8242 1.7615 3.9525 -2.4141 0.9544 3.5803 -9.6447 7.0967 2.0641 3.0257 5.5841 -2.6544 1.0340 1.4851 2.8993 -3.8102 -7.9813 1.9471 -4.3014 6.7832 -4.3810
-2.6114 -2.4846 -1.3686 2.6736 -2.5762 0.6984 -4.7350 11.3648 1.3248 -1.7089 0.5862 4.7779 0.5809 1.8956 3.4097 -7.0960 9.2416 3.1248 2.5604 4.8685 -0.6776 3.1762 2.6155 4.4134 -1.5892 -9.6198 4.7122 -0.2019 11.0895 0.8786
-1.4636 7.9387 -1.0054 4.5709 -2.8639 -4.0089 2.1877 14.4848 2.3801 -3.9109 -3.8506 5.9808 1.6202 1.5139 0.1893 -2.3025 9.1985 2.6848 0.7584 0.9359 0.7980 4.2863 2.1718 3.2927 0.6783 -5.4365 6.5322 0.6874 11.4103 3.9132
1.9567 9.1472 -1.4269 -0.5870 -3.1104 -4.4167 4.5349 7.2701 0.7192 -3.4885 -4.1179 -2.9464 -0.2991 0.6438 -1.4396 -0.3384 7.5037 1.2319 0.0596 -0.7003 1.0788 3.5093 1.6250 1.6241 1.9246 0.7520 6.0651 -0.2954 10.0843 3.8487
4.1740 2.3770 2.4306 -4.7268 -2.4492 -1.9881 0.4826 -1.4553 -0.9246 -0.8373 0.5850 -13.7002 -1.6937 0.0523 0.3823 -2.9240 7.6824 0.6204 1.1940 0.7392 1.0890 2.7515 2.0656 1.8057 1.3895 1.5131 4.9505 -0.5139 10.1930 3.0930
2.8815 -1.5015 3.5119 -3.2190 -1.6605 -0.4200 -3.0067 -2.9594 -0.8418 0.4581 3.3538 -5.2424 -1.6432 -0.3893 1.6638 -5.1743 7.9991 0.5972 2.0227 1.7717 -0.4415 2.1281 2.2279 2.6461 -0.3059 -3.8891 3.1410 -2.0241 9.2509 1.5001
-1.4697 1.2283 -0.8625 0.2289 -1.8338 -0.0098 -2.6255 1.8156 -0.4981 0.0243 1.5875 11.4015 -1.6855 -0.3112 0.3193 -3.5995 5.5077 0.0596 1.7741 1.3637 -2.8479 0.9568 1.7429 2.7916 -1.2473 -7.3806 1.6163 -4.6132 6.3677 -0.3192
-4.9530 6.1312 -1.0730 0.5848 -3.2607 -0.4623 -0.2757 4.7145 -1.1300 -0.0977 -1.1221 4.6980 -1.0161 0.7010 -1.0614 -0.4822 5.0139 0.2454 2.3680 1.2974 -1.3524 1.6645 3.0825 4.1217 0.7391 -3.7989 4.5977 -1.5715 7.7928 2.7317
-4.1353 7.6291 2.7388 -2.3450 -4.8925 -1.6581 0.9766 1.8990 -1.9099 0.5263 -1.6446 -15.5892 0.5376 1.7593 -0.2148 0.0766 8.7512 1.7025 4.1691 2.6488 3.1256 4.6782 6.1067 6.9610 4.4830 1.3331 10.2770 6.1267 14.2263 8.9687
-1.7387 4.7669 0.8192 -4.2557 -4.9951 -1.7064 -1.0723 -1.5286 -1.9719 1.1917 0.3105 -12.6781 -0.2135 1.9787 2.1731 -1.9476 9.1863 1.8295 5.1593 5.0099 3.7209 5.4459 6.8972 7.9330 6.2959 2.1058 11.1716 7.9294 16.7092 9.1010
-2.0314 2.2327 -6.0990 -3.4978 -3.7521 0.6122 -3.6163 -2.1783 -1.8230 1.6907 1.9077 9.0068 -3.4250 1.7866 3.9575 -1.9756 4.9748 0.0191 5.0506 7.1666 1.0804 3.1444 5.2610 6.4943 6.0337 0.9957 8.2866 3.6593 13.5962 4.2948
-3.6954 1.2833 -11.5417 -2.6623 -3.3635 3.2536 -1.6549 -2.3491 -1.7320 1.8949 -0.1929 15.1520 -4.7980 1.6915 3.4105 1.6841 3.6829 -0.8397 4.8383 7.0155 0.6423 2.0673 4.6087 5.7014 6.0149 0.5438 8.4091 2.8882 12.4780 4.0324
-3.9739 -2.9409 -15.3784 -1.9965 -4.2444 4.2685 2.1818 -0.1223 -1.0769 1.4415 -3.5498 3.0778 -3.5170 1.6157 0.8562 3.9845 4.5341 -0.4043 3.6304 3.5431 0.1171 2.2055 4.6294 5.4175 5.4781 -1.3903 9.8250 4.9815 13.7015 7.0917
-3.5558 -9.5813 -15.9045 -0.7325 -4.5797 5.2538 -0.0010 7.1479 -0.3791 0.7272 -1.4559 -3.4310 -2.5831 1.6798 -0.4973 0.8829 2.4729 -0.8086 1.5502 0.2187 -3.0477 0.9500 3.6676 3.8219 3.3702 -3.5060 8.1717 3.7737 12.4262 6.7878
-2.8840 -10.9398 -6.8872 -1.6006 -4.0674 6.9266 -7.0749 10.2280 -0.9433 0.8643 5.6167 -2.2843 -2.3107 2.0760 2.0324 -3.9998 1.7187 -1.1970 1.7507 1.6879 -3.4961 0.4911 3.9816 3.2658 2.5169 -1.8535 7.3967 3.0214 11.5460 6.0026
-1.3974 -4.0481 7.6802 -4.5601 -3.6352 5.6951 -8.0675 1.2879 -2.0613 1.5924 7.9721 -8.1513 -1.3854 2.4427 5.5676 -4.3529 5.3429 0.0051 4.5785 5.8644 -0.0920 2.3803 6.3715 5.4213 4.7523 1.3646 10.5298 6.7378 15.1365 9.6049
-0.7273 6.3565 13.3995 -4.5463 -2.7053 1.3613 -0.1863 -7.6563 -2.0505 1.4177 2.1444 -12.0269 -0.9728 2.0496 5.0713 0.0466 6.8353 0.5094 5.6470 6.2160 0.7506 2.7526 6.6847 5.8418 6.7243 1.4646 12.2584 8.5957 18.4757 13.5841
-1.3942 11.8621 7.1854 -1.5666 -0.9630 0.3879 6.0577 -4.4937 -1.2886 0.5072 -2.9160 1.7926 -2.0518 0.7846 1.3767 2.9679 3.8316 -1.4968 3.2592 2.1980 -1.2117 0.2588 3.2775 1.5629 5.2115 -0.6140 9.8679 4.8366 16.6554 12.6786
-1.2657 7.5088 0.2679 -0.9706 0.0696 4.6731 4.9601 1.1016 -1.0333 0.2912 -1.9628 12.0355 -2.3953 -0.2327 -0.8078 0.7731 3.2959 -3.0018 1.0895 -0.4964 -0.4288 -0.6910 0.2831 -2.8845 2.2154 -0.5048 8.5399 2.1572 13.3547 9.2501
-1.1314 -0.8716 -2.2225 -2.1840 -0.3911 7.7639 1.5455 -0.9984 -1.0821 0.7161 0.0528 -2.6022 -0.8528 -0.1639 -0.2972 -2.4139 7.0645 -1.5292 1.2976 0.8209 2.6894 1.9110 0.4603 -3.3880 1.1957 3.1309 11.0145 4.6578 13.2648 7.5819
-2.5161 -2.9648 -3.4912 -1.1934 -1.5406 5.8972 -1.0737 -2.6792 -0.9501 0.8977 0.6109 -13.8755 -0.0504 0.3231 1.0150 -2.4774 8.1806 0.6794 1.7795 3.1725 4.5514 5.0796 1.8417 -2.0135 2.2013 6.4520 13.5301 7.2451 14.5112 7.3636
-2.1548 2.3853 -2.9475 -0.1656 -2.4073 2.1278 -2.3255 2.0059 -0.9351 0.9415 1.1352 1.9110 -0.6626 0.7355 1.8565 -1.7795 4.8842 1.6239 1.3662 3.2097 6.1692 6.9488 2.7067 -0.8906 3.5696 6.4474 13.9523 6.7708 14.3077 7.9911
1.4520 6.1766 -0.8141 -1.0199 -2.2186 -0.0715 -0.1527 6.5483 -0.6669 1.1980 0.4740 16.1321 0.5958 1.4112 1.8298 -2.7072 3.8219 2.4182 1.2801 1.0770 8.8688 8.3387 3.6214 0.6830 4.7519 6.5657 14.1189 6.6207 14.1355 10.1798
3.6331 2.8430 -2.3928 0.1855 -1.2513 0.2407 1.6384 9.9623 0.6162 1.4354 -0.0594 8.2920 4.5110 2.0380 1.4962 -3.4592 8.3067 3.4841 1.5229 -0.3520 10.5276 9.5486 4.4929 1.7985 5.4347 9.1118 14.2939 7.9349 15.3623 11.3493
2.0634 -1.9352 -7.1884 3.4445 -0.6798 2.3844 -2.1940 16.2188 1.8853 1.5656 2.7812 2.2833 7.1948 2.1125 1.7723 -3.3589 12.9872 3.4700 1.1032 0.7486 9.7830 9.5551 4.3349 1.0767 4.8995 9.6461 13.2378 8.2194 16.6523 9.4346
0.2273 -3.9232 -8.3952 3.9924 -0.4901 4.3571 -5.5317 19.2996 1.5214 1.8364 5.0509 8.1152 5.7207 1.8809 1.9293 -3.5379 11.1633 2.0468 0.4627 2.5650 7.1300 7.4091 3.1355 0.4390 3.5134 7.1459 12.1107 7.9158 17.0444 7.9596
0.4968 -5.4490 -3.2235 2.4731 -0.1211 4.1297 -1.0684 13.5466 0.3830 2.0585 1.9209 3.6599 2.4257 1.4918 0.9635 -3.3403 5.5236 0.8397 0.3184 2.7371 3.8681 4.7223 1.9831 1.7633 3.0307 7.1718 12.8378 8.8689 16.9233 9.4789
1.7152 -3.0593 4.4094 2.3599 -0.0812 1.7178 5.7188 7.8321 0.5100 1.5790 -2.5666 -8.2024 1.5079 1.1164 0.0703 -2.1848 4.8459 1.6415 0.5574 2.5251 2.8574 4.9225 2.4476 4.1716 4.6216 10.2642 14.9289 10.2771 17.0159 11.7125
2.7525 4.3064 5.9410 2.8491 -0.6010 -0.7157 7.2395 11.1290 1.6933 0.2512 -3.5214 -1.9283 2.6670 1.4110 0.4923 -1.2731 8.1304 3.8080 1.4959 3.9399 5.2257 7.3937 4.9655 6.7723 7.0897 11.2667 16.7870 11.4072 17.9717 13.2202
2.8322 7.1772 -0.1385 2.3736 -1.0697 -1.3437 5.0238 16.5535 2.1702 -0.9850 -2.4127 12.1216 2.5897 2.1500 1.1479 -1.3857 7.6653 4.7741 3.1452 5.2331 7.9497 7.9688 7.3093 8.6145 7.6829 9.9377 17.4931 12.1469 18.6951 13.9641
1.0095 6.6767 -1.0085 1.5727 -1.2492 -0.7210 3.1083 14.7854 1.5876 -1.0650 -1.4607 8.1213 1.3306 2.2930 1.0884 -2.1770 5.5310 4.1934 4.1836 4.6725 8.6301 6.8267 7.4205 7.9993 5.8028 9.7604 16.8489 11.5402 17.6837 13.2186
-0.4159 10.8583 7.3232 0.7008 -1.1723 -0.7505 2.7089 10.6451 0.9346 -0.4222 -1.1530 -1.7478 1.2694 2.0787 1.0607 -2.8010 7.2628 4.0871 4.1858 4.7598 7.9630 7.4055 6.7796 6.0129 4.6283 9.9147 15.9626 10.9543 17.1521 13.0742
2.6119 12.2653 12.4845 -0.3839 -0.8404 -2.2401 4.6692 10.2378 0.5546 -0.3929 -2.1016 2.9607 1.8410 2.3387 0.7752 -2.4265 8.8198 4.2139 3.7961 6.4865 6.1741 8.1332 6.9853 5.1282 5.7901 7.8183 15.5689 11.7377 18.3905 15.1764
7.1531 7.1194 12.6047 -1.0170 -0.6243 -3.7611 7.7362 8.2368 0.1600 -0.7818 -3.0779 11.5414 1.1097 2.4482 -0.6552 -0.6765 6.1168 2.8029 2.7700 6.4165 2.8741 5.2621 6.6339 4.6271 6.4185 5.2490 14.3448 10.8447 17.3245 15.1597
5.8944 6.6896 11.9146 -1.1792 -0.8684 -3.2422 7.3372 2.3678 -0.1426 -0.1789 -1.8889 9.0031 0.0184 1.8427 -1.1431 3.0616 3.5266 1.3283 1.9119 4.8667 0.1108 1.4364 5.7743 4.3174 5.8573 5.2496 12.7573 8.3802 14.5333 11.8625
1.0555 7.7156 4.3882 -1.3577 -1.1866 -0.8658 2.7017 0.0171 -0.1838 1.1764 0.6132 2.2208 -0.0083 1.4303 1.1338 7.5845 3.3711 1.7423 2.9838 6.1040 -0.3590 0.9610 6.2958 6.0811 6.6114 5.8533 12.6753 8.7087 16.1296 11.0164
0.5052 -1.8137 -6.4159 -0.1439 -0.8646 1.2032 -0.9499 4.8761 0.0397 1.5411 2.1196 3.3486 0.2402 1.4482 3.1398 7.7683 1.7878 1.8900 4.3382 8.4067 -0.3813 1.6573 6.0835 7.7045 6.9148 3.4339 11.8164 9.3107 18.9124 12.5418
1.8574 -11.4518 -8.0048 3.7003 0.0658 1.9171 -1.4450 13.2339 0.6721 0.6254 2.4785 7.6184 1.1539 1.1577 2.5201 2.1937 -0.6542 0.4585 3.5342 7.4635 -0.9280 1.0297 2.9275 6.3454 4.7846 0.3849 8.7359 5.9390 15.6638 11.7631
-0.6161 -8.1906 -3.7111 6.9459 0.7332 1.8243 -2.3971 18.7311 1.3604 -0.2862 3.2327 2.7752 4.1744 0.9786 1.9834 -1.5122 1.1831 0.2832 2.4394 5.8961 -0.1335 1.6519 1.0105 5.1661 4.2914 0.4856 7.6361 2.9080 10.5641 9.9225
-2.3202 -1.0759 -1.7390 5.4508 0.6403 1.0762 -4.8631 16.0447 1.2752 -0.7654 5.0680 -4.7880 7.0182 1.5074 2.7478 1.4794 5.7226 1.7817 2.8034 6.4613 1.7285 3.6672 3.0950 5.9552 6.4516 1.0330 9.2783 2.9747 9.2516 8.5021
0.2667 2.9655 0.1171 0.5662 0.4203 -0.1570 -5.8407 7.0867 0.3676 -1.0823 6.6878 -1.3879 5.9923 1.9982 2.6219 4.9692 6.4283 1.8018 3.0578 6.0650 2.7779 3.3278 4.9588 5.6154 6.3424 0.1376 9.7671 2.6218 8.9839 6.2906
1.0484 9.0566 3.4271 -3.7234 0.7604 -0.3326 -5.4602 -1.5676 -0.8083 -0.6512 7.1943 4.8486 1.7190 2.1959 2.4493 3.5977 2.8423 0.6277 3.3195 4.8668 3.4440 1.1939 4.5109 4.8778 4.2424 1.4932 9.8548 2.2170 8.7318 5.8203
-0.9096 13.0340 5.8441 -6.1328 1.0437 0.8805 -5.7414 -6.4431 -1.9283 0.5033 7.2730 3.6261 -1.8908 2.8232 3.7963 0.9843 0.3393 1.1730 4.8141 6.4515 4.2500 1.0648 4.6132 6.4722 4.5699 4.2859 11.3725 3.4305 10.3511 7.7759
0.6499 7.0059 5.2437 -6.2716 0.3893 1.2795 -4.9825 -4.2564 -2.5091 0.6958 6.2715 4.4066 -1.9305 3.3344 3.7438 0.1073 1.8488 2.8310 5.2408 8.2096 3.9336 2.6387 5.3115 7.3564 6.0642 3.6834 11.5920 3.5446 12.0725 7.5584
3.1681 -3.6777 -1.8113 -3.5904 -0.5683 1.0510 -3.6625 5.9185 -2.2075 -0.4935 3.8505 7.4470 0.7894 2.4096 1.5501 -2.3342 5.0742 3.0771 2.9101 6.3647 2.2337 2.8793 4.1436 4.6291 4.4225 0.9288 9.5662 1.9072 12.2075 4.6463
-0.0372 -10.0140 -13.5284 0.1504 -0.8231 2.3431 -6.6502 14.2380 -1.3898 -1.3076 3.1083 -1.1098 3.2455 0.8155 1.2776 -7.5461 7.7850 2.3218 0.7190 3.8139 1.2934 1.8362 1.9545 1.2719 -0.2989 -0.7675 7.6959 0.1537 10.8383 2.1463
-3.6986 -8.8641 -19.1244 2.8568 -0.5513 2.2347 -10.2167 13.1808 -0.1300 -1.2004 3.9243 -13.4879 5.2321 0.7594 2.4760 -10.8301 11.3728 2.9411 0.8941 3.2068 3.2865 2.4081 1.5940 0.2400 -3.6951 -0.7299 7.2808 -1.4738 8.5049 0.9380
-0.7554 -0.2994 -13.1321 4.6512 0.0227 -2.5865 -4.2889 11.0256 1.5211 -1.4927 0.5769 -9.9547 7.5132 2.2241 0.8506 -9.3324 14.1836 5.0330 1.7840 2.6539 6.8503 4.7855 3.3533 1.1217 -2.3626 2.5964 8.6742 -0.9696 8.2504 2.2703
2.8474 10.8070 -2.6681 5.4307 0.8698 -7.3278 7.2202 14.2729 2.2270 -2.4566 -6.3832 4.4150 7.2351 2.9771 -2.2388 -5.5352 10.8332 6.0490 1.6394 1.3143 8.0666 5.3820 4.8268 2.7989 1.5375 6.6507 10.6208 2.0537 10.7402 5.7890
1.8269 16.3651 5.5485 3.9104 1.0310 -6.7512 10.5210 16.3019 1.2441 -2.8832 -8.0559 11.0275 4.4072 2.4810 -2.6192 -2.1282 5.3019 5.2885 0.9966 0.6214 6.7607 3.6581 4.7083 4.3133 3.7225 5.7771 10.7496 2.8996 11.1613 6.8260
2.2509 12.3798 10.0435 0.1624 0.0622 -2.4086 4.2684 13.4817 -0.0361 -2.1832 -1.7443 8.3774 4.1660 2.2803 -0.6732 -0.0888 7.0702 4.7505 1.0104 1.6097 6.5270 3.3649 4.3077 4.9251 3.9939 3.2974 10.0120 0.9223 8.6737 4.7041
5.4890 2.3436 7.4542 -3.6394 -0.8006 2.6834 -2.4106 8.7182 -0.8658 -0.9103 5.0135 7.2129 5.3047 2.7130 1.4233 -0.4415 11.5093 4.2592 1.5830 4.2155 7.3647 4.5518 4.3823 4.9462 4.0268 5.5593 10.9349 1.1971 8.1531 4.2646
4.1132 -3.7597 0.4464 -5.0225 -0.7695 5.3735 -4.7187 2.0421 -1.9936 0.1767 6.0248 8.8622 1.9335 2.9514 2.9764 -2.9921 7.9203 2.2019 1.7376 6.3413 6.7153 4.0174 4.2273 5.4175 3.8507 9.7800 13.3020 4.3988 10.2173 5.8550
-0.5214 0.1913 2.3455 -3.3857 -0.3454 2.8108 -2.8142 -3.5587 -2.7930 0.4595 3.0407 7.8853 -2.6228 3.0410 3.2538 -5.3243 1.4255 0.6725 1.3136 5.8086 5.9421 3.0489 4.3334 6.5812 4.0392 11.4576 15.3950 6.8224 11.3473 5.7572
-0.5628 6.4323 11.7239 -0.8511 0.0037 -1.4535 -0.1869 -2.3122 -2.1117 -0.1429 1.5079 7.2179 -1.4989 2.9649 2.7619 -5.5043 2.6221 2.1729 1.1649 4.4936 6.7579 4.3323 5.4043 7.2280 5.1918 11.3668 15.7444 7.5219 11.2362 4.8251
2.1920 5.2192 8.0758 0.2494 -0.2070 -2.2981 -1.3798 2.2306 -1.0298 -0.8485 2.8054 10.7099 2.4004 2.1595 3.1998 -4.4940 7.8165 4.3019 1.5706 5.0496 7.0822 5.6478 6.1690 6.5878 5.4164 11.5821 14.8465 8.0453 11.4901 5.9461
2.5331 -0.3414 -7.7718 0.7351 -1.2570 -1.7080 -3.1863 4.5950 -0.7204 -1.0411 2.5690 13.6851 3.4902 1.2054 3.3586 -4.3869 8.6321 4.0739 1.7480 5.7310 6.4293 4.4130 5.6867 5.6500 3.5908 13.1676 15.0123 8.6541 11.1904 7.0245
1.7672 -2.8597 -12.6000 2.0468 -2.1467 -1.9296 -0.4854 6.1407 -0.6166 -0.7456 -0.6029 12.8305 2.8867 1.0477 1.6612 -5.0770 6.7022 2.6476 1.5761 5.0292 7.1352 2.4401 5.1401 5.3817 1.9859 14.4468 15.4393 8.2025 9.3252 5.2222
0.5560 -2.5940 -6.5872 2.2638 -1.9520 -0.7574 2.1322 4.3097 -0.6881 -0.1245 -2.4731 6.4903 2.4624 1.1496 0.4458 -5.7672 6.3499 1.9203 1.9216 5.2801 8.6048 2.1111 5.4917 5.5404 2.0895 13.0611 13.9278 7.2282 8.4536 3.1159
-1.9732 -1.8663 -5.0257 0.1774 -1.3991 0.5770 1.3874 -3.5137 -1.3466 0.0687 -2.5476 -5.6187 1.2565 0.7525 0.8065 -7.7457 5.6192 1.3155 2.3446 6.7723 7.5763 2.4702 5.7644 5.5265 2.2594 11.2087 12.7586 7.9385 10.4933 3.9480
-2.6369 1.4800 -1.0919 -1.5411 -1.3950 -1.0356 1.6302 -7.9182 -1.6789 -0.6277 -2.8545 -11.3334 -0.0099 0.3969 0.4870 -10.7446 3.0708 0.2662 1.6420 6.8603 3.6238 1.5308 4.7428 5.0278 1.5740 10.0254 13.2790 9.2264 11.7334 5.8856
-0.3590 5.6338 9.9363 -1.5391 -1.6799 -2.5139 1.1745 -2.8233 -1.1344 -0.9197 -0.3930 -3.2973 0.4757 0.7789 -0.4761 -11.1281 2.7356 -0.1684 0.4709 5.2878 -0.0251 0.0198 2.7841 4.0622 0.9067 6.0431 11.6444 6.8809 8.3097 4.6797
1.1517 1.8262 10.2956 -0.8587 -1.5291 -0.3431 -3.0609 3.5052 -0.6638 -0.4007 4.4307 5.6147 1.6831 1.2999 -1.0722 -7.7457 4.8227 -0.0775 -0.4062 3.2565 -1.4590 -0.5880 0.8718 2.6211 -0.0760 0.9545 7.3182 1.0486 2.9263 -0.4609
0.9486 -7.9860 -0.1726 0.7664 -0.5212 2.3412 -4.2627 5.6178 -0.7843 -0.9128 4.6913 8.8697 1.5777 0.9299 -2.2896 -3.8255 3.4649 -1.0573 -1.6900 1.5395 -2.1994 -1.3098 -0.6811 0.8944 -1.6017 -0.7371 4.9083 -2.6484 0.8454 -4.1774
0.1672 -8.9660 -1.9737 2.7122 0.6796 1.7148 -1.2391 6.4817 -0.9716 -2.5351 1.5279 10.0217 1.1624 0.1836 -2.7459 -2.5467 -0.0314 -2.2574 -2.5145 1.6864 -2.6476 -2.1717 -1.4906 0.0267 -1.6681 -1.8071 5.6463 -1.2331 3.1540 -1.2188
-1.6518 -0.4157 -2.6372 2.5051 0.4099 -1.6046 -2.5050 5.9783 -0.9203 -3.4429 1.4055 3.9594 2.3039 0.6418 -0.2728 -4.0517 1.0874 -1.1580 -0.9819 3.8287 -1.1897 -0.7367 -0.7483 0.9936 0.6199 -3.2291 7.4417 2.1303 7.0892 4.9972
-2.8387 1.8185 -18.0613 0.9114 -1.2643 -4.8073 -5.1898 3.9582 -0.7524 -3.6962 0.9437 -5.7097 3.1048 2.2649 1.8395 -5.0733 3.3401 1.1472 1.4472 5.4679 0.5679 1.8141 1.0641 2.7320 3.2214 -0.4237 9.2565 3.6694 9.7514 7.6557
-1.4643 -4.9230 -27.6928 1.0428 -1.7526 -4.7883 -0.5639 5.0895 -0.5166 -3.7182 -3.9542 -6.0489 1.1930 3.0032 0.1374 -3.6982 1.0275 1.4778 1.6256 4.6926 -0.4737 1.5259 1.7858 2.9238 3.6912 2.5892 9.0184 2.6520 9.5445 5.6841
-0.4281 -7.5744 -11.8750 2.1752 -0.0915 -0.9316 5.4048 7.4594 -0.4112 -2.5245 -6.8771 -2.5421 -1.3607 1.7907 -2.1872 -3.7360 -0.1418 0.2740 -0.0646 2.2713 -2.4050 -0.5577 0.6477 1.0470 1.3957 -0.5704 5.6146 0.0042 6.8298 1.3446
-1.5769 -1.8375 7.7934 1.3191 1.3953 2.4533 4.2999 3.2123 -0.7875 -0.5759 -3.8508 -2.3578 -2.3173 0.3288 -1.4077 -7.4892 2.4009 -0.0755 -0.6138 1.1323 -1.7074 -0.8135 -0.3258 -0.3670 -1.0677 -3.1207 3.5987 -1.9278 4.7683 -1.7376
-1.6944 4.1495 8.8507 -0.8309 1.1315 1.3990 0.7438 -3.8408 -1.2503 0.5128 -0.3946 1.9935 -2.3280 0.5206 0.8185 -11.1095 1.6438 0.4007 0.6379 2.6196 -0.0113 0.0592 0.1375 0.6206 -0.7383 0.8609 6.1932 -1.0890 5.5139 0.3760
0.4229 3.5450 0.5498 -1.0411 0.2886 -1.6684 0.2548 -2.7026 -0.8667 0.6980 -0.3666 5.7099 -1.0113 1.6907 1.6897 -12.5604 -0.8388 0.8211 1.2569 3.4084 -0.0089 0.0866 0.6223 1.9940 0.5542 3.8930 8.5649 0.1031 5.8757 3.9660
2.2929 -2.9535 -1.5885 0.9527 0.1527 -1.6085 0.7184 3.9332 0.0903 0.6118 -0.8270 -1.1659 1.4616 2.1662 1.3651 -11.9873 2.1311 1.1077 0.0506 1.2775 0.1860 0.0206 0.2248 1.5820 0.3165 1.8959 6.8226 -1.5817 3.0987 2.1758
2.8632 -8.8042 1.8610 1.8081 0.4370 1.9874 -1.1919 4.7564 0.2230 0.6919 2.2479 -7.7622 1.7953 1.8039 1.7475 -7.1415 6.1653 0.8495 -0.5811 0.3700 2.3640 0.6808 0.3447 1.1979 1.0109 1.7012 5.2634 -2.9124 1.1131 -0.7608
1.8982 -8.4637 1.0151 -0.2321 0.5097 4.5797 -5.7645 -0.5289 -0.6705 1.3984 7.4637 -6.8595 -0.0179 1.3647 3.7288 -0.8650 5.3144 0.4652 1.3773 3.5697 4.1822 2.0410 1.9852 2.7761 3.9207 5.7377 7.8902 0.9823 3.9668 3.0757
-1.0355 -2.6452 -6.4761 -2.1900 0.4178 3.3425 -8.5112 -3.7472 -1.2309 1.8603 8.0266 -5.0259 -0.1056 1.1814 5.5061 -1.0614 3.6399 1.2021 3.7231 6.6522 3.9677 3.9091 3.7515 4.4201 5.3544 8.4944 11.6976 7.4346 8.9078 9.7853
-3.7166 3.1652 -12.5707 -0.7114 0.2335 0.7009 -5.0836 -1.1381 -0.6253 0.7770 1.7630 2.8215 1.3027 1.2886 4.8169 -7.0851 3.4481 2.0797 3.2946 5.9015 3.4186 4.5219 3.7474 3.6853 3.3394 7.5881 12.2721 9.1553 9.9233 10.1802
-3.3242 1.2876 -13.8218 3.2193 -0.0310 0.1776 0.0656 6.0530 0.6221 -1.1095 -4.1751 15.5177 1.7598 1.4723 2.2755 -11.4653 2.3980 1.2522 0.3828 2.6932 3.5822 2.5432 1.9057 0.9000 -0.5026 5.1717 8.9242 3.6939 4.4531 2.9753
-0.7646 -9.0747 -11.4414 6.1163 0.3439 2.1277 1.7766 12.5144 1.4899 -2.4721 -4.9494 12.5255 1.9439 1.2568 -0.0580 -12.0586 2.3543 -0.3974 -2.5075 -1.0446 3.3400 -0.1097 -0.2718 -1.9260 -4.2490 2.9568 4.6111 -2.8802 -2.2394 -4.5222
1.2597 -14.7524 -2.7930 5.6070 1.5630 4.2062 3.5668 9.8028 1.2477 -3.1125 -4.0271 -2.4042 1.6315 0.9228 -1.2044 -10.7816 4.1143 -0.9936 -3.3276 -3.5944 2.7811 -0.9724 -0.8331 -2.5371 -5.1356 3.1871 4.4940 -2.1940 -1.6295 -3.9728
1.6411 -7.5225 6.5816 2.4294 2.1194 3.5970 5.2972 -1.0261 0.2088 -2.8859 -2.7258 -5.4221 -0.5108 1.5535 -0.7101 -8.9418 4.3171 -0.3574 -1.5643 -2.9308 3.7279 0.4537 1.0851 -0.3433 -1.9664 7.4510 9.5936 4.5447 4.9051 2.9068
0.7589 1.1899 4.3092 0.1847 1.1446 0.0959 0.6171 -6.9110 -0.3165 -2.2169 1.2633 -2.4500 -1.7597 3.1588 1.1547 -7.7605 4.7333 0.8480 1.0603 -0.3500 6.1544 3.3311 3.5937 1.9142 1.1798 12.0112 13.3450 7.0353 7.2456 5.2080
0.3940 2.9169 -3.4745 0.7780 0.1575 -2.7107 -3.9528 -3.7000 0.3111 -2.3771 3.2975 -4.7523 -0.0740 4.1892 1.9022 -6.5241 7.6912 1.5824 2.1898 0.5673 7.5710 5.1609 4.2194 1.6516 1.0409 12.1169 11.6549 2.8253 4.3614 1.4269
2.5340 4.2615 1.6963 2.3520 0.6311 -2.3239 3.9690 -0.8152 1.2775 -3.0352 -2.3240 3.5192 0.8561 3.4953 -0.6265 -4.7310 7.6005 0.5211 1.3437 -1.0981 6.1344 3.4679 3.2335 -0.1127 -0.1021 8.5406 8.5406 0.3418 4.4847 1.0602
5.2754 5.1419 14.8376 3.5351 1.7394 -1.2860 14.9454 0.0584 1.6716 -3.0124 -8.9928 16.9818 -0.3434 1.7603 -3.6728 -6.2202 3.6970 -1.6226 -0.2816 -3.1367 2.4338 0.1208 1.9418 -1.5554 -1.0522 3.9035 6.6964 1.5638 7.3527 3.7334
4.5037 -1.8664 11.8155 4.1503 1.8322 -2.2986 11.4799 4.5385 1.2406 -2.9635 -8.3081 6.5751 0.5094 0.6754 -2.8314 -11.6050 4.3350 -2.2181 -0.8746 -2.8323 -1.0700 -0.8166 0.7062 -2.0573 -3.2264 -0.9213 4.4877 0.6764 6.2239 1.7416
1.4750 -9.8901 -3.0914 3.1306 1.0769 -3.0585 1.0768 6.8419 0.1764 -3.2477 -4.1767 -12.7415 3.1290 0.8762 0.3612 -14.1559 8.5740 -0.9235 0.5111 -0.1557 -1.7913 0.3879 0.3450 -1.2468 -4.6727 -3.6569 2.7473 -1.1906 3.0391 -1.1867
0.5904 -7.4286 -0.1592 1.3564 0.9744 -0.9056 -0.6985 0.3689 -0.5113 -2.5689 -1.7360 -6.8344 2.7542 1.4365 1.5045 -11.3828 7.6816 0.1023 2.0248 1.6073 0.9358 0.9827 1.2479 -0.0251 -3.5327 -1.2768 3.8223 0.6317 3.0112 -0.0714
0.5892 -0.2862 13.0197 1.2924 1.3422 1.5265 -0.4987 -4.7398 0.0827 -1.3357 1.6441 9.5753 0.7535 1.6839 1.4168 -8.3153 3.8911 0.3880 1.6445 1.1456 4.8434 1.3051 2.0279 0.3753 -2.6299 4.4916 6.7996 3.4736 3.9638 -1.1195
-1.2984 0.1793 2.2871 2.1513 0.8062 1.1524 -6.2747 0.8465 1.1486 -1.3256 4.7725 12.0599 1.2399 1.8129 2.5543 -7.8214 3.4207 0.8874 0.9569 1.1516 6.2225 2.0943 2.0545 0.9054 -3.1463 7.3632 8.8629 4.0670 4.0391 -4.5418
-1.6914 -5.1503 -18.2910 2.2711 0.2011 0.3146 -6.0136 8.3471 1.5837 -2.2574 1.0303 11.0185 2.2526 1.6463 2.7384 -9.7044 2.9841 1.0728 1.4461 2.2157 4.0583 1.4998 1.8228 1.8843 -3.2724 4.3836 8.2119 4.0151 5.6036 -2.3114
1.2013 -10.0665 -13.4181 2.2317 0.7285 1.6982 3.4416 7.3683 1.4852 -3.0918 -6.1446 10.9104 1.6775 1.1069 0.7903 -13.1586 0.9069 0.3931 1.3103 2.3579 1.7881 -0.3439 0.9017 1.6747 -3.5315 0.7061 5.7497 2.9761 6.6031 0.8127
2.0952 -11.0994 1.2062 1.2746 0.4462 3.1796 4.3832 1.5023 0.8520 -3.7674 -5.3094 0.9200 2.0329 1.1195 0.4709 -13.6484 2.4650 -0.1195 0.4308 2.9252 2.4509 -0.3160 -0.2477 1.1725 -3.6606 1.9860 4.7160 0.1858 4.1669 -3.5144
-0.3854 -7.2317 0.5909 -1.2617 -1.5513 3.0340 -4.4009 -1.6892 -0.1305 -3.7781 1.8545 -7.3805 3.2056 1.9325 2.2376 -8.2962 5.9860 -0.0723 1.0378 5.0366 3.9752 1.5834 0.1239 2.4056 -1.3400 4.9253 6.0935 -0.4024 2.9044 -6.8340
-1.1242 -2.6093 -1.3716 -2.4140 -2.0936 3.2002 -4.6352 -2.4613 -0.2189 -2.8381 3.1767 0.1503 2.2985 2.4704 1.9366 -3.1047 5.1599 -0.2039 2.1522 4.8318 3.0819 2.1918 1.3762 3.4712 1.3258 3.7257 6.9223 2.2647 5.5876 -1.9465
-0.1294 -2.1979 0.5290 -1.0862 -0.3297 3.9055 0.4473 -3.4285 0.6070 -2.1028 0.3249 7.1939 1.0790 2.4692 0.6051 -4.0330 3.5931 -0.3266 1.7514 1.7576 1.4479 1.5166 1.5609 2.4739 0.9809 1.1447 5.6015 2.7148 6.2723 1.3035
-0.7021 -2.2606 -6.8623 0.4610 0.4204 2.2022 -3.6201 -0.7790 1.2421 -2.4575 2.2137 2.3538 2.6705 2.6068 2.0743 -7.6200 6.3803 0.0405 1.3518 1.1800 2.2648 1.8042 0.9927 1.3785 0.0211 1.9975 4.0773 -0.5840 2.6452 -2.0947
-0.2482 3.3079 -10.5137 2.3568 -0.2823 -1.8900 -5.3510 7.4507 2.2692 -3.4855 2.5072 1.3647 4.7529 2.9193 3.4856 -7.6302 7.7905 0.3123 2.1581 3.3070 3.8764 2.2730 0.6140 1.0806 1.2107 3.9421 3.9046 -2.1589 1.6013 -2.8129
2.4376 9.5872 2.1640 4.2252 -0.2409 -3.4583 4.2278 11.0307 3.6507 -4.0851 -3.3740 6.8965 4.0420 3.1734 1.6763 -4.5114 4.4789 0.0090 2.3107 3.3833 3.6966 1.4121 0.0583 -0.0301 2.1875 4.1303 4.2680 -0.2393 5.5229 1.4158
