Fp1 Fp2 F7 F3 Fz F4 F8 FC5 FC1 FC2 FC6 T7 C3 Cz C4 T8 CP5 CP1 CP2 CP6 P7 P3 Pz P4 P8 PO9 O1 Oz O2 PO10
-3.7644 -3.6764 -4.3221 -9.2891 0.2197 3.2698 -9.8868 -7.5812 0.6953 10.1153 -4.5404 1.1638 -0.5563 17.3229 1.5296 -11.3189 -6.9200 5.2409 -5.6170 -2.0118 2.3397 0.3513 0.2420 2.3366 1.8706 -10.5078 -5.4517 -0.3275 -0.7461 -7.4784
-3.5186 1.5894 -8.4918 -10.2342 -0.1764 -0.9186 -2.1437 -9.0294 0.7439 2.4995 -1.3927 -2.0632 -0.2455 2.8772 3.5807 -11.7343 -4.6326 7.5163 -3.7021 -1.9002 -1.7293 0.5085 1.0764 2.2549 2.6357 -6.7741 -3.3249 -9.6267 -2.3595 -7.4907
-3.4076 4.2473 -9.5352 -6.4237 -0.4469 -3.2491 1.4052 -6.9903 0.5622 2.1585 -3.5575 -2.9996 -0.1964 9.4903 1.4016 -11.9703 -3.7364 9.2299 5.0187 -1.3938 -11.5608 0.4067 5.2771 2.7656 1.9286 -3.0960 -2.0771 -7.8989 0.9199 -5.8007
-3.2277 3.7483 -4.1521 0.5146 -1.3941 -3.5481 1.6793 -1.2534 0.5276 -6.0047 -6.5219 -2.7724 0.4672 -0.1178 -5.2617 -10.3675 -1.4670 10.0686 9.9452 -0.2127 -4.3698 0.3069 10.0153 4.0235 0.4000 1.5583 -0.0602 8.1401 6.8959 -2.8792
-2.8591 2.4228 1.2865 3.9093 -2.7183 -3.7984 1.8000 3.1319 0.4823 -17.9588 -5.3581 -1.5110 2.1564 -23.4652 -8.6205 -7.5264 1.0010 10.0768 5.5958 1.5721 10.5865 0.2715 10.0834 5.4296 0.0676 4.3776 2.5454 17.0625 7.6887 -0.6692
-2.2597 1.2689 3.6537 4.6407 -3.2677 -4.5957 2.1047 4.4648 0.1735 -14.0075 -3.6728 -0.1983 4.7046 -13.0880 -7.5777 -8.1901 2.3020 10.1829 -1.0482 2.1823 9.3064 0.0727 5.9192 5.8654 0.6131 2.4829 2.8482 5.3491 1.9989 0.0642
-1.4942 1.1034 5.6860 6.3634 -2.8449 -4.8893 2.9376 5.7492 -0.1529 -2.2310 -4.1012 -0.6564 7.3833 15.5990 -6.0141 -11.0203 4.5675 11.7801 0.0986 1.7341 0.2245 -0.2358 6.5102 5.8054 1.5366 1.3910 2.6059 -5.2068 0.5505 0.2804
-1.1326 0.6279 7.4829 5.1836 -2.4817 -3.8646 3.1552 6.8623 -0.1978 -3.1278 -2.6940 -0.1374 8.0659 9.4773 -2.4741 -7.6841 7.6642 14.3037 5.7748 2.5466 5.4144 -0.3417 14.6056 6.4225 3.7246 4.5376 5.2534 6.4799 8.6507 -1.3489
-1.3354 -1.1319 8.0580 0.2761 -2.9078 -3.0085 1.7583 5.9649 -0.0322 -12.3183 0.1248 3.5299 5.9288 -17.5053 -0.0684 -0.3377 8.4681 15.4695 5.0008 3.7386 17.5435 -0.2226 18.7870 6.3492 5.0187 6.9445 8.2059 22.3461 14.0993 -6.1074
-1.2908 -1.1213 9.0936 -1.4705 -3.4975 -3.8148 1.0645 4.6871 0.1637 -15.0581 -1.2413 5.8840 3.8873 -18.7306 -6.6726 -0.3498 7.1767 14.5402 -1.2496 2.4206 16.3204 -0.1135 10.6586 3.6021 1.9098 7.6963 8.1630 16.2092 6.0990 -9.0529
-0.5979 1.5214 10.6820 1.2431 -3.3522 -4.6914 2.1890 4.7207 0.3970 -12.2909 -5.1328 4.3643 3.8949 -2.6720 -16.0513 -6.5593 6.3276 13.5679 -3.4075 -0.3384 6.1254 0.0653 -0.0457 -0.3931 -2.6481 10.7256 7.1437 -2.2490 -5.6424 -7.3495
0.4088 3.7553 10.1453 3.2043 -2.4254 -4.0205 3.8419 4.5864 0.7071 -12.6984 -5.4114 2.7330 3.5458 -3.5485 -16.6067 -7.4780 5.8501 14.2227 -0.6273 -1.3696 5.2241 0.5374 0.8072 -2.9535 -2.7233 12.0228 6.3601 -5.4871 -5.4069 -7.2785
1.3330 5.4872 6.9120 2.1972 -1.1966 -2.9416 5.8181 2.7899 0.8709 -16.2395 -3.6492 2.7983 1.3663 -16.5928 -13.0577 -2.2920 4.1501 14.7358 0.9827 -0.6591 12.9032 0.9274 9.3611 -4.0546 0.1387 5.6149 3.4807 8.9188 3.7426 -10.9694
1.9118 7.4642 4.0368 1.3780 -0.1427 -2.0795 6.5112 1.1768 0.6618 -15.3697 -5.0374 3.0389 -0.1330 -14.6809 -14.4636 -0.0083 0.9989 12.9717 -0.0519 -0.0532 12.3907 0.7145 8.8614 -4.8260 -0.0161 -2.2550 -0.6280 17.3194 4.8175 -11.7049
2.6359 7.5969 4.1683 5.8664 0.7341 -0.5590 4.1433 2.2003 0.4445 -5.9522 -8.5692 3.2783 0.3955 10.7253 -18.3806 -3.3656 -1.8749 10.8559 -1.4694 0.0508 0.6127 0.3355 -3.5143 -4.7846 -2.5639 -2.1116 -1.8104 5.1965 -6.1356 -7.6026
3.8381 6.4955 5.6641 12.6896 1.7303 1.0382 2.2834 3.2699 0.7823 5.6276 -9.9590 3.5513 0.7852 41.0030 -20.1180 -6.6557 -2.2510 10.9107 -2.5119 0.5057 -5.2328 0.5437 -10.5782 -3.1597 -1.7729 3.2101 -0.0532 -11.6610 -13.0756 -3.0123
4.3634 6.9156 5.5705 11.4162 2.4226 1.9733 3.4426 1.2488 1.3127 7.3759 -7.8602 3.9832 -0.1541 43.4430 -18.6647 -5.5469 -0.5906 11.2874 -2.6004 2.1729 4.0714 0.9535 -1.8315 -0.7987 3.2201 4.9733 1.1307 -8.8471 -4.4892 0.0548
3.8447 7.7404 5.6577 3.5690 2.2153 3.1088 4.1777 0.2331 1.1586 -0.6469 -4.2613 5.6235 -0.6726 15.5469 -13.5674 -2.1812 0.7843 9.9223 -0.4517 4.7476 12.8266 0.7360 9.7695 1.3362 7.9584 3.3009 1.7809 10.0954 8.9282 3.4477
4.0438 8.0749 8.8744 0.9290 1.7792 4.0282 4.6120 3.3655 0.5544 -3.7120 -2.1716 7.2336 0.4174 -0.1240 -7.5259 -0.3848 2.2282 9.3340 2.2576 6.7317 7.1194 0.2574 8.4262 3.6339 10.7363 5.0657 4.5059 18.4361 11.3428 11.3985
5.8769 10.8674 12.5057 3.4386 2.2705 3.5679 8.7070 5.6683 0.5044 0.8727 -2.0351 7.0952 2.1017 10.4055 -5.0995 -0.0977 5.4212 11.8608 1.1520 7.8131 0.3066 0.3255 -0.7369 6.4956 14.0740 10.7409 8.5749 7.7404 5.0911 23.4397
7.9342 15.7549 13.1003 3.6116 3.5232 3.0923 13.7137 4.9557 0.9071 -1.6114 -1.1920 6.8367 3.6303 7.7150 -5.9740 0.3501 8.9595 14.9785 -2.7670 9.2013 8.5832 0.5601 -1.0626 9.5601 18.6486 14.1692 11.8139 -0.8090 4.5992 30.2852
8.2941 17.2178 11.6962 2.3711 3.9997 3.7429 14.1030 5.1882 0.7583 -10.3393 1.1034 7.4622 4.9021 -12.6682 -5.6617 1.2229 10.6574 15.7459 -2.1418 11.1303 19.9220 0.2412 10.4243 12.4040 22.2427 15.0268 14.9596 8.7088 14.4044 27.5216
6.2652 13.2280 8.9023 2.5310 2.6920 4.0196 10.6089 5.7533 -0.0961 -6.4312 1.4452 7.7641 4.5422 -4.7052 -2.5861 2.6914 10.8282 15.2995 4.0719 12.7035 15.0918 -0.3180 19.6103 14.4413 23.9307 17.9281 18.2177 24.3371 23.9001 23.4844
3.0224 7.9576 4.2892 2.4181 0.6702 3.2387 6.4095 3.0785 -0.8478 10.0416 -2.3020 7.7686 2.0450 35.3791 -1.1149 3.5264 10.1414 15.4389 7.5744 12.9927 2.3058 -0.6701 15.8370 14.9517 23.7139 19.3408 18.1388 25.9833 22.3077 24.1500
0.5211 5.4260 0.5994 1.3963 -0.4022 2.3141 3.2105 -0.7037 -0.9028 16.5152 -6.1432 7.2403 0.0099 54.2270 -4.7559 1.1995 8.5271 15.0001 4.5398 11.2725 1.6599 -0.9874 5.7431 13.7629 20.9425 12.9474 13.1793 11.8561 11.9717 24.5313
-0.5062 6.0595 -0.2794 -0.1524 -0.5993 1.4673 2.5301 -1.8684 -0.3804 2.5887 -5.2948 5.3231 -0.2826 23.8849 -10.0673 -2.4673 6.1496 13.0594 0.6237 8.5470 9.0759 -1.0979 2.9558 11.3457 17.1162 4.9787 7.5105 -1.4863 4.3516 20.9639
-0.8340 8.1987 -1.6206 -1.4776 -0.9362 0.6477 3.5457 -1.3531 0.1683 -16.1532 -2.9518 3.4167 -1.2402 -18.3731 -13.6649 -3.6774 2.6645 11.4478 0.5943 7.1684 5.7030 -0.5493 9.5271 8.7188 14.9101 4.3344 4.7909 -0.2668 5.5237 15.9913
-1.6974 9.4505 -5.7980 -1.0353 -1.6445 -0.5451 3.8070 -2.4345 0.4087 -19.1439 -5.5144 2.1386 -3.8472 -20.3006 -16.8742 -4.5429 -1.9467 10.5842 2.1188 6.8834 -7.1797 0.2556 14.1566 6.6121 12.9553 5.1417 2.7613 8.6660 9.3949 9.6294
-3.3493 8.4022 -9.0805 -1.1916 -2.2194 -2.6187 3.5823 -6.1544 0.6200 -6.3892 -10.6335 0.0458 -6.1180 12.5653 -17.7631 -8.1263 -5.8049 8.2243 1.2849 5.1887 -12.0328 0.6149 8.1154 4.3744 8.1056 -1.1433 -1.6647 7.4864 7.0337 2.8918
-3.8486 6.3065 -8.2890 -2.9381 -1.5990 -3.3446 3.1840 -8.8795 0.9639 2.7763 -10.6874 -1.4901 -7.0458 25.3735 -12.1713 -11.2189 -7.2232 5.2081 -1.3539 2.1949 -6.2034 0.5898 -3.2944 1.5822 1.7704 -8.4011 -6.1461 -5.9315 -1.2687 2.1534
-1.7479 5.1220 -7.0059 -0.6489 0.7034 -0.7202 0.9918 -6.8187 0.8558 -0.4224 -5.6050 -0.6426 -6.7452 3.7394 -3.4683 -11.5271 -6.9174 5.0413 -2.6519 -0.0206 -3.7405 0.4073 -7.7089 -0.6735 -2.3969 -8.6212 -6.9691 -15.4176 -7.9677 4.8827
0.1156 4.4282 -8.4596 3.8668 2.4885 1.5421 -1.6916 -3.3690 0.1022 -2.3385 -2.2569 -0.0971 -5.0369 -7.4431 2.1221 -12.5895 -6.9144 6.5306 -1.5621 -1.7359 -10.5439 0.0207 -1.9265 -2.3121 -4.6685 -6.6056 -5.5556 -10.6326 -8.4817 1.6870
-1.3643 3.1500 -9.3749 0.6809 1.2303 -0.3164 -1.9946 -4.0791 -0.3362 4.0271 -4.1041 -1.6162 -2.8561 8.7480 2.7791 -15.1176 -7.8293 5.9836 -0.2530 -3.9692 -16.1041 -0.2899 4.2586 -4.3911 -7.2829 -6.7295 -4.8054 1.4113 -5.0568 -2.5130
-3.8188 3.0559 -7.1250 -8.4898 -1.3632 -3.4585 -0.4371 -7.5913 0.0549 5.7256 -8.5339 -2.6073 -1.5151 19.2945 -3.5550 -14.3007 -7.4560 5.2324 -1.1821 -5.3255 -10.9048 -0.2098 2.3517 -5.6041 -8.9350 -3.7845 -3.6370 7.9155 -3.3404 -0.2040
-3.9122 5.1467 -4.3050 -12.7776 -2.0173 -4.6366 1.3953 -9.4526 0.4862 -1.9494 -11.4276 -2.2825 -0.7791 13.2399 -15.4854 -9.0923 -4.2660 7.4903 -3.2858 -4.8916 -1.0829 0.0304 -4.0930 -4.0375 -7.0297 1.4612 -1.6128 2.4787 -6.5304 -1.9031
-2.8602 4.6877 -2.3832 -9.2781 -1.2846 -4.6679 2.1508 -7.8730 0.5233 -6.2465 -9.8053 -1.9770 -0.2624 9.9418 -20.3517 -3.6314 -1.2333 10.0176 -2.8594 -4.1893 1.7256 0.2728 -5.8677 -1.6119 -3.3332 0.3211 -1.8566 -8.5704 -10.3175 -12.0591
-2.0756 -1.1846 0.1227 -2.7262 -0.9615 -3.4290 -0.0512 -3.2804 0.6962 -1.7948 -3.8124 -0.2898 0.0112 11.1190 -10.3653 0.7481 -1.0748 9.9571 0.7773 -3.5751 -1.2871 0.6108 0.1094 -0.9508 -1.7026 -4.0313 -3.3705 -8.6922 -6.9616 -13.8752
0.1912 -5.0827 2.1620 2.8447 0.0991 -0.2759 -2.8611 1.2586 1.0509 3.6154 1.2402 3.1846 0.7595 10.9698 0.9286 4.8806 -0.8666 9.6031 2.9834 -1.8959 -0.4413 0.7451 6.6958 -0.9461 -2.3944 -0.9393 -0.8116 6.2074 1.7030 -3.4572
4.3490 -0.0066 2.0012 6.7054 2.8497 1.9949 -0.7218 2.8584 1.0656 3.3563 0.8411 4.6905 2.0515 11.8002 -1.0815 6.6472 2.4043 10.1721 0.5881 -0.2328 5.3915 0.5234 4.3596 -0.4102 -3.4584 5.6556 4.0545 14.8529 3.9584 2.6830
7.4832 8.1087 2.8553 8.2683 5.1343 1.4592 5.3786 3.0761 0.9429 -3.6919 -0.9775 3.0754 2.7676 2.1494 -8.1349 5.4662 6.1186 9.9898 -2.6565 -0.3586 9.9146 0.5972 -5.1305 -0.6450 -4.4936 6.2329 4.4618 1.9311 -3.7780 2.9884
7.6412 9.5947 6.8990 5.3637 5.1565 0.0798 9.1148 3.1186 1.2471 -9.9150 1.5266 1.4622 2.6726 -17.0749 -5.2624 5.1643 6.8118 9.8176 -3.8784 -1.2197 10.8494 1.2390 -8.6852 -1.5305 -5.2253 5.1295 2.3262 -13.3827 -10.0825 6.9546
6.2025 5.0925 9.0811 0.4906 4.0829 -0.5204 8.8496 0.8370 1.6074 -2.4865 5.0650 0.8947 1.9849 -8.1872 3.5068 6.9255 4.8478 11.2398 -5.8292 -1.3614 9.4045 1.5701 -0.9110 -1.5854 -4.2029 8.1671 4.0340 -6.6023 -5.7835 8.5794
5.0531 1.2784 6.3820 -0.4719 3.4996 0.0138 6.4290 -2.6993 1.2673 14.4140 3.4715 1.3241 0.3558 32.9537 4.9131 8.0704 1.9971 12.7392 -7.5395 -0.9953 6.2272 1.0100 7.0893 -1.2367 -1.4522 9.5170 7.5085 12.0549 2.5423 3.9913
4.2647 0.3792 3.5803 1.0584 3.1981 1.7671 2.5013 -3.3700 0.4776 19.4932 -0.7155 3.8732 -1.2220 50.3449 -0.7405 8.2779 -0.0129 12.7833 -5.0350 -0.0090 3.8814 0.2166 5.0452 -0.7326 1.2278 6.3460 8.0705 15.2474 3.9809 2.9658
3.6178 0.9304 3.7094 0.8800 2.4808 2.6520 0.2804 -1.3991 0.0597 6.9232 -0.5778 5.6614 -0.9986 22.2490 -4.4565 9.0879 1.1263 12.4116 -1.9909 1.5792 5.3439 -0.1089 -1.7361 1.0717 3.5809 5.8532 8.1965 1.4181 0.1132 3.8539
3.4918 1.9997 4.3116 1.9784 1.5107 0.9188 3.1302 0.4943 0.0877 -6.5997 3.3075 2.8288 0.1297 -6.6587 -4.8987 10.2708 4.8393 12.6555 -2.6374 2.7040 8.0712 -0.0857 -1.2903 3.5518 6.5533 10.2095 11.3748 -6.6336 0.5964 -0.4267
3.4551 2.3532 4.2011 6.3295 0.7023 -0.8776 6.7085 2.4400 0.1166 -9.5182 4.8799 -0.6506 0.2190 -8.8236 -4.3556 11.1266 6.4819 12.8729 -2.1717 3.6289 7.5371 -0.0020 8.0868 5.2899 9.2140 13.5774 15.7699 3.0731 7.2536 -0.8235
2.8356 1.2270 4.3019 8.1113 0.2486 -0.1074 5.7951 4.3469 0.1299 -6.2915 3.8568 0.6262 0.0674 -4.2325 -0.5449 11.7674 4.3090 12.1761 2.2358 5.5927 5.8061 0.0942 15.0654 7.0593 10.5559 14.1709 17.8372 17.9774 12.7061 7.9829
2.1937 0.7515 3.7184 4.8604 0.3169 1.3569 3.8939 3.8337 0.2869 -3.2793 4.1632 3.7084 0.8373 -5.8461 5.1637 11.9765 1.7076 10.4994 5.2748 7.7446 7.4095 0.1167 10.6718 9.3500 11.8449 13.2741 15.6979 19.9048 11.9001 15.0799
1.8616 2.0884 1.0745 2.4841 0.6007 1.1287 4.6689 1.0432 0.3537 -1.3327 4.6385 3.8411 1.0272 -2.9983 5.6646 11.2793 0.3842 8.4224 4.8751 8.3293 9.7646 0.0313 1.5688 10.2279 12.9194 9.2805 10.4707 7.1961 7.3486 15.5720
0.7351 1.4990 -1.9858 3.4860 0.0875 0.2151 3.9579 -0.7187 0.1968 0.2566 2.9002 2.4605 -0.2894 5.6804 1.9720 10.2106 -0.6957 7.1873 4.7626 7.8668 7.3939 0.0794 0.4922 8.8113 11.4629 4.1034 6.5407 -4.1393 4.5489 13.7441
-1.3951 -3.0321 -2.4278 3.4587 -1.5284 -0.0421 -0.0213 -0.1262 0.2149 1.8510 2.0531 2.3371 -1.1264 10.3419 2.4065 9.8668 -0.8811 7.8010 5.6916 8.1734 1.4588 0.4097 7.7197 7.3675 8.8066 2.7882 6.3166 -0.4322 6.1435 8.9582
-2.6549 -5.9872 -0.4041 1.1260 -2.8281 -0.4768 -1.3283 1.1102 0.6041 2.6145 3.5426 2.5199 0.1195 10.3303 5.3545 10.1402 0.5887 9.4429 5.7134 9.1820 -2.2000 0.7178 12.2751 7.6699 8.4673 2.7213 6.5214 11.1477 8.9880 2.0461
-2.5244 -3.5651 0.8926 -0.9817 -2.8699 -1.5929 1.2158 1.3602 0.8383 -0.3453 2.8459 1.7462 2.2489 7.4785 1.7313 9.9481 2.2456 10.4320 5.3902 9.0668 -1.4263 0.6921 8.5809 8.3811 8.7982 -0.9771 4.1992 11.9236 7.0605 0.8325
-3.3037 -1.4627 -0.2631 -2.6673 -3.2225 -2.5719 0.8008 0.7813 0.5607 -7.3517 -0.8512 0.7871 3.2962 -2.4986 -5.9687 8.6339 3.3442 10.2390 5.6037 7.3454 0.0899 0.5758 2.4889 8.0793 6.5649 -4.1671 1.4948 -1.0620 0.6745 5.9967
-5.8405 -4.3716 -2.5908 -3.8687 -5.1470 -3.4021 -3.4431 0.4125 0.3464 -12.5943 -2.5458 -0.4960 3.0196 -14.7488 -6.9449 6.0417 4.3574 9.3037 5.5546 5.4016 -0.5560 0.7315 2.4397 7.5280 4.0529 -3.0439 0.8684 -10.1696 -1.1369 10.1809
-7.8383 -7.7710 -4.3301 -3.9276 -6.8147 -4.3164 -5.1791 -0.2079 0.7271 -10.3989 -1.8262 -3.0592 2.2531 -13.9939 -1.6722 2.8311 4.1806 8.3561 5.1891 3.8478 -0.6501 0.9312 9.2147 7.1790 3.7733 -2.2060 1.7888 -2.4172 5.8454 12.9222
-7.5703 -7.0378 -5.0252 -4.9283 -6.0647 -4.0949 -3.6838 -2.4445 1.0401 -3.6099 -2.3662 -5.1581 1.2014 -1.3619 0.9421 0.5678 2.0529 7.9610 4.1173 2.2121 1.5406 0.7456 13.6554 6.1226 3.3000 -2.8732 3.3673 11.8575 11.6841 15.8751
-5.5112 -3.3957 -4.8993 -7.8055 -3.4609 -2.3523 -2.5366 -5.1463 0.4134 -0.6030 -3.2898 -4.5263 -0.0719 2.7293 -0.4900 -0.3116 -0.0590 7.5740 1.5706 0.5184 1.3461 0.3049 7.4105 4.1036 1.0561 -0.6986 4.2721 12.9211 6.3906 13.9731
-2.9449 0.6433 -4.0269 -9.2455 -0.8925 -1.0396 -1.1286 -6.2331 -0.5083 -2.4999 -2.7561 -2.8576 -1.1966 -4.1953 -2.6767 -0.8206 -1.4871 6.0378 -0.0888 -1.3562 -3.3458 0.0681 -3.5543 1.5777 -1.0257 2.1431 2.3231 -0.5786 -3.7785 7.6779
-0.9028 2.6836 -2.7813 -6.8269 0.8484 -0.6355 0.4490 -6.0903 -0.4203 -1.8392 -3.0261 -2.2439 -2.6718 -2.0435 -5.6530 -0.9319 -3.9474 3.0951 0.4917 -3.8443 -6.4944 0.1229 -6.0123 -1.1951 -2.2166 1.2444 -1.3135 -8.9409 -5.9235 4.3437
0.9232 1.9760 -1.5441 -1.4573 2.2870 0.9572 -0.7366 -4.6458 0.2568 2.1012 -4.7162 -1.0279 -4.9095 8.1196 -8.5958 -0.0849 -6.2537 -0.3368 0.2411 -6.0789 -5.6879 0.0940 -0.1790 -3.6488 -3.2749 -0.2125 -2.7449 -0.0825 -0.2940 3.3062
3.6450 2.3758 0.7803 5.1861 3.9829 3.5336 -1.9075 -0.4581 -0.0008 2.2483 -5.1444 1.2322 -6.2072 6.9494 -9.1701 0.4998 -5.8070 -2.4990 -1.2452 -6.9171 -7.0825 -0.2280 1.2221 -5.0053 -3.2427 0.2786 -1.9318 11.6860 1.8079 -0.3667
6.5641 6.0646 4.8880 10.0025 5.6174 4.4358 1.4423 3.6447 -0.9091 -1.1238 -4.0369 1.3444 -5.3283 -1.1497 -9.1845 -0.3254 -4.4605 -2.1329 -2.2130 -7.0455 -11.2728 -0.4115 -5.7125 -5.2114 -1.6519 -0.0487 -1.9433 7.2915 -4.0105 -4.4499
7.3126 8.9926 7.6557 8.3021 6.2601 3.5222 5.0560 2.3336 -0.8393 -4.4466 -3.7759 -1.0951 -4.5924 -5.1302 -13.0788 -1.3405 -5.0538 -0.7739 -4.9404 -7.6495 -10.5423 -0.1373 -10.9548 -5.1412 -1.3696 -0.5690 -2.5200 -7.2314 -9.5544 -4.2643
5.3174 8.6741 5.6375 1.2777 5.2491 2.3507 3.7224 -2.5910 0.0273 -10.5420 -5.6371 -2.5960 -5.8541 -13.3391 -20.9298 -1.0290 -6.4719 -1.2668 -8.4440 -8.2377 -4.8667 0.0320 -6.7208 -5.4403 -4.0793 0.9980 -1.2258 -10.0254 -6.0734 0.0258
2.9218 7.5926 1.0023 -1.8690 3.1509 1.0531 0.9167 -3.6285 0.1154 -18.3185 -8.1836 -1.9480 -6.4625 -25.6162 -26.3446 0.3010 -6.9481 -3.1546 -6.4134 -7.4490 -2.7183 -0.2471 1.7952 -5.2880 -6.4680 1.7616 1.0232 2.9050 3.0916 4.6261
2.1112 6.9919 -1.5038 2.1245 1.5152 0.0293 0.4334 0.2886 -0.4788 -21.1207 -8.4072 -0.8855 -4.0795 -29.8803 -24.4598 1.4331 -5.9460 -3.2045 -0.8989 -5.3125 -5.2137 -0.2623 3.5683 -3.6255 -5.5332 -0.1149 1.4532 12.2358 6.2850 7.2582
2.1473 5.7160 -0.7651 5.1311 1.0467 0.1899 0.2474 2.9137 -0.3436 -18.8392 -6.2106 -0.2939 -0.9856 -26.7139 -19.7329 1.9627 -2.5776 -0.5905 -0.1166 -3.4346 -5.0781 0.2932 -2.6679 -1.2341 -3.1805 -0.3632 0.5842 5.0839 0.1245 9.0951
2.1375 4.0231 1.9163 4.0203 1.1516 0.7692 -0.5079 2.5360 0.5276 -15.9712 -4.8500 0.0364 0.5899 -21.0016 -18.6358 2.9344 2.0272 2.4193 -3.0021 -2.6007 0.6534 0.6535 -5.3738 0.2544 -1.9505 3.6028 1.3898 -6.2041 -5.3673 9.8875
2.7794 3.0643 5.1495 4.6075 1.2783 0.8566 0.0933 3.3708 0.9089 -14.4145 -4.4816 0.3140 1.8933 -14.8656 -19.0922 5.3770 4.3493 4.4462 -3.6228 -1.5824 6.8972 0.5228 2.0607 0.8636 -0.8472 7.6834 4.2728 -3.9824 -1.6438 7.1943
3.3703 2.4512 6.2126 5.6157 1.0466 0.7653 1.3110 4.9976 0.5744 -12.9104 -2.5702 0.9577 3.7070 -11.6150 -15.5903 8.1920 3.8794 6.0328 -2.0863 0.4679 8.3359 0.4041 10.2301 1.9491 1.6935 8.3020 6.5906 8.4763 6.2300 3.0744
2.0676 1.2657 3.7338 1.5256 0.0899 0.2811 1.3412 3.3289 0.3435 -8.0440 -0.2300 1.9675 4.5276 -6.1699 -8.5292 9.1246 3.7765 7.3271 -0.5542 2.2857 6.5102 0.3978 8.6356 3.6118 4.3304 7.5684 7.0357 14.4234 7.7921 2.5780
-0.1635 -0.2906 0.3377 -3.0599 -1.1523 -0.9020 0.8711 -0.0463 0.4586 -1.1695 0.5483 2.4145 3.7393 3.9287 -2.2067 7.8447 5.0833 7.8347 -0.3537 2.8518 6.2404 0.3193 0.8294 4.5096 5.0815 6.5123 6.5117 7.6917 1.9089 5.3110
-1.3173 -1.3837 -1.9668 -2.9321 -1.8967 -1.7057 0.2817 -1.2637 0.6209 -1.2656 1.2690 1.9379 2.4048 2.2452 0.1317 6.1066 5.2523 7.8053 -2.5881 3.1751 6.9886 0.3874 -2.2429 4.3210 4.5191 2.4760 5.1271 -2.9894 -2.8740 6.1618
-1.3807 -1.3186 -3.0383 -1.4671 -1.8248 -1.2682 -0.8678 -0.3609 0.9568 -9.9571 2.5249 1.6746 1.4498 -16.3016 -2.0685 5.1273 3.0704 7.3307 -3.4626 4.0454 4.5206 0.7245 2.7134 3.8066 3.7444 -2.7783 2.4023 -6.3608 -0.6219 2.0236
-0.4271 -0.5723 -1.3572 1.0001 -0.8853 -0.3897 -1.0855 2.1717 1.4456 -13.8381 2.5500 2.3418 1.2727 -24.1482 -4.4988 4.7960 0.7869 5.5556 1.1698 4.4755 -0.3192 0.9736 7.3776 2.7313 1.7394 -5.1145 -1.0927 -0.3598 4.1115 -5.0140
1.0852 -0.8630 1.9685 6.2150 0.1759 -0.1709 0.2212 4.9790 1.4477 -5.6058 1.6480 2.8236 1.4463 -6.6120 -2.4817 4.8448 -0.0643 3.0961 5.7114 3.8025 -2.1917 0.8742 2.9320 0.7315 -1.8817 -6.6323 -4.5089 4.3361 2.4905 -8.6739
0.9652 -2.2029 1.7936 8.0465 0.1788 -0.4489 0.1929 4.1024 0.9292 0.6889 1.3000 2.2692 0.4960 5.8382 -0.1816 4.7569 -0.8540 2.1213 3.3426 2.8786 -0.5040 0.6235 -7.3112 -1.0130 -4.7769 -9.8240 -7.3393 -3.3978 -6.5283 -6.7123
-0.9963 -2.3828 -2.4184 4.3715 -0.5273 -0.4445 -2.4709 0.6231 0.6582 -7.8303 0.7651 1.3591 -1.9229 -12.5473 -4.3809 3.2344 -2.5107 2.0231 -0.8009 1.8329 -1.4206 0.4645 -11.6814 -1.9380 -5.7737 -11.7037 -9.5023 -17.1219 -14.1376 -6.0238
-2.1481 -1.1142 -5.9298 3.7707 -0.7419 -0.3658 -4.7364 0.0418 0.6713 -18.7334 -1.3679 0.1702 -3.8869 -33.4403 -11.3450 -0.2213 -4.5698 0.0473 0.5322 -0.5915 -7.8670 0.2640 -6.4094 -3.5675 -6.7953 -10.5235 -10.8296 -18.5767 -12.8881 -10.6554
-1.8374 -0.5119 -7.0666 6.6743 -0.4336 -0.7829 -4.4832 0.4904 0.3695 -12.6649 -4.5130 -1.8406 -4.0897 -17.0668 -12.8104 -4.0234 -7.2276 -2.8045 2.8740 -4.0865 -13.8024 -0.0807 -0.6999 -6.3556 -8.7472 -8.7716 -10.4987 -5.5665 -6.8981 -14.8632
-1.5525 -0.6352 -7.0886 3.3729 0.1824 -0.8519 -3.4047 -3.2597 0.0137 3.4591 -6.0306 -3.4592 -3.5402 16.1989 -8.5689 -6.4311 -9.7870 -2.8844 -0.4441 -6.2793 -13.4313 -0.1843 -3.6495 -8.1160 -9.8543 -9.1397 -9.2755 2.1166 -6.2703 -15.1097
-0.9215 0.5072 -5.6381 -3.4259 1.4682 0.5261 -3.1611 -6.9235 0.2576 6.0424 -4.1848 -3.1014 -3.3254 14.0149 -4.5783 -7.1567 -10.1034 -0.5746 -5.8404 -6.1865 -9.2051 0.0963 -12.1503 -7.3861 -9.0793 -11.1981 -9.4329 -7.3960 -12.3714 -13.2439
0.9034 2.4529 -2.6862 -2.1389 2.9219 2.4298 -3.3336 -4.5673 0.7791 -5.8138 -1.7849 -1.6472 -3.5177 -16.1323 -5.8152 -6.4142 -8.6144 0.3075 -7.3387 -5.2358 -6.5093 0.2301 -14.8676 -5.6425 -7.7595 -11.4676 -10.0950 -19.4657 -15.8275 -9.2748
2.2834 2.8559 -0.4226 4.1302 3.3569 3.1111 -3.3636 -0.6172 0.9018 -11.4495 -2.5995 -1.0217 -4.2208 -22.9237 -11.4724 -4.8437 -7.6137 -1.2494 -5.8797 -4.6957 -6.8200 0.1083 -7.1658 -4.9586 -7.3246 -9.0639 -8.2909 -15.0005 -10.5986 -5.6586
2.1109 1.5381 0.3107 5.9184 2.8630 2.6410 -3.0990 0.1375 0.6884 -5.8510 -4.3996 -1.3898 -5.0759 -5.1959 -13.9343 -3.4700 -6.6276 -2.7417 -4.4788 -4.5609 -7.4785 0.2355 1.7951 -5.2213 -7.2421 -7.0439 -4.7263 2.1386 -2.3822 -7.5464
2.0778 -0.0715 1.6103 5.8542 2.6429 2.4267 -2.4095 0.4414 0.4503 0.6437 -3.3060 -1.3254 -4.9845 5.5677 -8.9061 -2.2717 -4.7222 -2.7839 -3.6001 -4.7055 -5.1719 0.4064 0.8479 -5.1110 -6.3882 -5.3728 -2.3151 11.0259 -0.1291 -10.3581
2.6649 -1.2904 4.1480 6.4364 2.8642 2.6903 -1.9413 0.6927 0.1809 6.3283 -1.6610 -0.2826 -4.0575 12.8562 -3.5781 -1.2503 -4.1533 -2.6252 -4.0344 -5.1743 -0.7932 -0.0371 -7.8498 -4.6558 -5.4563 -2.1545 -1.1607 1.5860 -5.2073 -5.2964
1.9497 -2.0385 4.7245 3.3707 2.3552 2.3043 -2.6893 -1.6031 -0.1201 9.2044 -2.5620 0.1200 -3.6937 20.5220 -5.2447 -1.3451 -6.4068 -3.2170 -6.9158 -5.5498 0.5710 -0.7401 -11.3888 -4.4975 -5.5433 -0.7679 -0.0431 -11.9175 -10.0813 2.3321
0.3657 -2.2693 1.1569 1.0462 1.0942 1.2576 -4.2203 -2.8680 -0.3774 1.8492 -3.5015 -1.1828 -3.9273 9.0352 -9.7997 -1.8330 -9.0511 -3.5969 -9.4639 -5.3407 -2.8518 -0.8899 -3.7380 -4.0636 -5.7483 -3.9981 0.6847 -9.3584 -6.5492 1.4180
0.6288 -1.5070 -3.4793 6.2905 0.9320 1.1037 -4.9095 0.2084 -0.5190 -9.1233 -2.5409 -2.3676 -3.4784 -12.6032 -10.8088 -1.3367 -9.5409 -2.9087 -7.4558 -4.7132 -6.2914 -0.5910 5.4010 -3.1810 -5.4797 -6.1427 1.1418 6.7017 1.9375 -6.2402
2.3290 0.3862 -5.1434 11.3275 2.3279 2.1439 -4.4144 2.5802 -0.3018 -11.2360 -1.7716 -2.1083 -2.5540 -18.0059 -9.5342 -1.3710 -8.4807 -2.2395 -3.8336 -4.2614 -6.1721 -0.3533 3.6522 -3.2893 -6.3428 -3.4052 1.6340 13.0610 2.5865 -12.8775
2.9282 1.7178 -4.2932 8.4437 3.3463 2.8943 -4.0622 0.7208 0.2185 -7.9443 -1.4895 -1.8932 -2.0113 -13.8221 -8.7603 -3.0520 -7.8174 -2.6565 -6.0678 -4.2542 -5.1241 -0.2240 -6.5670 -4.8361 -8.4555 -3.4571 -0.2573 -1.1732 -6.9711 -15.4107
3.1081 1.4834 -3.0584 5.9452 3.3531 3.0794 -4.2004 -0.0036 0.3821 -7.5594 -0.1040 -2.1716 -0.5111 -15.2427 -7.8868 -3.6027 -7.4605 -2.7690 -11.7839 -4.1421 -5.1018 -0.1606 -10.7142 -6.0827 -9.2586 -9.4258 -4.2752 -17.5714 -13.4723 -12.3539
4.5104 0.6940 -0.9875 11.0083 3.4410 3.6049 -4.1094 4.1331 0.0632 -6.2270 0.6837 -1.5542 2.8406 -9.9826 -7.0637 -1.5660 -4.9924 -1.0570 -10.6495 -3.3824 -3.7042 -0.2022 -2.4599 -5.6506 -8.1889 -9.7185 -4.0497 -13.4552 -8.1397 -5.7267
4.8321 -1.6778 1.8913 16.4146 2.9838 3.6810 -4.5109 8.1373 0.0159 3.2108 -1.0823 -0.8653 5.1711 15.0101 -5.5459 -0.0336 0.3338 1.2479 -3.1507 -2.7298 -1.3801 -0.1740 6.9316 -3.9842 -7.1682 -1.9321 1.1943 5.0040 0.9284 -2.1553
2.0573 -6.1477 2.8595 14.5658 1.0558 2.1968 -5.8188 7.4251 0.2852 13.6222 -2.3010 -1.6708 4.1368 36.3493 -0.6313 -0.6755 5.3268 2.5313 0.7614 -2.8860 -1.3280 -0.1073 5.0198 -2.2382 -6.2602 -0.5054 3.2598 11.3846 2.1593 -4.8079
-0.6706 -7.5256 1.5981 7.8855 -0.4919 0.7113 -5.9434 4.5804 0.0780 8.8833 -0.0817 -2.2759 1.9704 19.2474 3.5599 -1.0555 7.0131 3.0820 -0.2880 -2.6895 -1.4799 -0.4072 -4.2067 -1.2683 -4.2358 -6.4625 0.2321 -2.3659 -4.0125 -10.9438
-0.7073 -3.6985 1.2671 2.2685 -0.3761 0.9486 -4.5680 3.4432 -0.4552 -7.9079 2.1579 -0.8847 1.4678 -19.7768 -0.0351 -0.0695 6.1776 3.2032 -0.0758 -1.2849 0.6055 -0.9269 -7.2904 -1.2132 -1.9844 -6.1328 -1.5127 -15.7746 -8.2874 -14.9252
-0.5066 -1.9048 2.2051 0.2039 -0.4854 1.5978 -4.5981 3.6320 -0.4608 -13.0852 1.0474 0.7867 2.2588 -26.9897 -5.5766 0.8962 4.8130 2.9770 2.6508 0.1141 1.0657 -0.9464 -0.4348 -1.2383 -1.1933 -0.9851 -0.5663 -10.0543 -5.0815 -12.4913
-1.8648 -6.0438 2.1662 0.8089 -1.7585 1.0374 -6.2098 3.4240 -0.0981 -0.4958 -0.1778 0.9854 2.8898 1.9508 -1.9011 1.8760 3.6546 3.6996 4.0620 0.7776 -1.0122 -0.4818 6.4691 -0.3324 -1.6531 -1.2194 0.0419 6.6812 1.2719 -5.9623
-2.6236 -9.7580 1.9814 2.7942 -2.3790 0.3455 -6.6280 3.5070 -0.0858 8.4792 1.5517 0.6852 2.8637 16.8407 6.7503 2.7721 2.9233 5.2116 3.0794 1.2549 -0.7219 -0.3208 3.9946 1.2101 -2.2860 -3.4073 0.1468 11.5976 2.5529 -0.5261
-1.8194 -8.1658 3.3406 4.5418 -1.5840 0.8257 -5.8545 4.5298 -0.3295 1.9726 2.7611 0.7645 2.2127 -1.1130 7.3688 1.4542 2.3983 4.4101 2.9799 1.1330 1.8058 -0.6424 -4.5258 1.8737 -2.9183 -1.6746 -0.0601 -1.6192 -2.1354 2.4749
-1.4557 -4.8311 4.4823 3.1440 -0.8736 1.4833 -5.6523 4.1209 -0.2494 -5.6394 0.3690 0.4201 1.0238 -16.3172 0.2225 -1.7351 1.0324 0.2984 3.9585 -0.0830 1.8053 -0.7337 -7.8486 0.8259 -3.6961 -0.2821 -1.1896 -14.9162 -5.7299 4.5633
-2.1214 -4.4198 3.4096 -0.2625 -1.1215 1.2678 -5.7298 1.4416 0.3540 -0.7771 -2.1269 -0.5462 -0.4566 -4.2831 -2.2912 -3.5813 -1.6755 -3.7354 1.8853 -1.1422 -1.9826 -0.1025 -2.6283 -1.1075 -4.2196 -2.3792 -1.9076 -11.5080 -3.7816 6.8102
-2.1370 -6.4713 1.3634 1.1735 -1.4863 0.9974 -5.5406 0.5906 1.1749 9.2473 -1.1312 -0.9511 -1.7329 14.7406 3.9059 -3.4832 -4.6072 -5.1197 -1.7939 -1.2117 -7.4447 0.8175 1.5323 -2.5658 -4.1875 -5.0773 -1.9185 1.0523 -0.2127 7.0003
-1.2116 -7.8227 0.0677 8.1821 -1.2340 1.2734 -5.6103 3.0461 1.6415 10.9898 1.0819 -0.3723 -2.8912 15.4056 9.0261 -2.9271 -6.4056 -5.3107 -1.8633 -1.3565 -11.1743 1.2374 -3.5673 -3.0738 -3.8345 -7.5204 -3.8774 2.5724 -1.7098 2.5637
-0.7401 -6.6543 -1.4235 10.8778 -0.6073 1.4336 -5.4012 3.3973 1.4281 4.5180 1.6942 0.1157 -4.6559 1.5147 6.4226 -1.8282 -6.9713 -6.6425 -0.9195 -1.9876 -10.9373 0.9654 -12.0829 -3.2121 -3.1263 -10.4890 -7.7323 -10.1096 -8.0648 -2.5894
-0.4450 -3.5610 -3.6790 5.6464 0.3116 1.6454 -3.9302 -0.2234 0.8360 -0.2272 1.9604 -0.0588 -6.1689 -8.2358 2.1216 -0.1074 -6.5051 -8.4695 -3.3168 -1.8918 -8.9913 0.4325 -12.3520 -3.5183 -1.8156 -10.9149 -8.6212 -18.1513 -10.6527 -3.3151
1.5110 -0.5835 -3.8261 3.5708 1.8792 2.9473 -1.8723 -1.0793 0.3667 2.3589 2.8118 0.2539 -5.3311 -2.8324 2.4611 1.2371 -4.3272 -7.7886 -4.2140 -0.6139 -7.7824 0.0233 -3.5579 -3.4680 -0.3609 -5.4048 -3.8587 -7.8077 -4.4803 -0.8651
4.8996 1.5010 -0.1049 9.8488 3.7897 4.8613 0.0977 3.5956 0.0780 8.4466 2.9471 2.1864 -2.5964 11.8404 4.7839 2.3811 -0.4860 -4.2306 0.4217 1.0022 -5.9456 -0.2280 2.8829 -2.3195 0.9462 2.9226 2.4709 8.8790 2.8245 2.2133
7.2238 3.7446 5.1502 12.7476 4.9758 5.7699 2.5800 7.1415 -0.2914 9.8336 2.9483 4.6847 -0.7411 15.7819 4.6833 4.1246 2.3458 -1.7925 3.6901 2.2992 -3.4449 -0.5196 -1.1820 -0.6361 3.0650 6.2011 4.7881 10.3675 2.0262 5.1250
7.4041 5.7239 9.4997 6.4272 4.8842 5.6461 4.8444 6.3692 -0.6834 2.9967 4.6139 5.6914 -0.4145 -1.6103 2.4566 6.2000 2.0696 -2.6530 0.2707 3.2582 -2.1522 -0.9220 -8.9400 0.9497 6.9676 2.4719 3.7383 -2.7446 -2.5687 6.2032
7.0591 6.2200 11.8321 0.8817 4.4230 6.0895 5.0088 6.0127 -0.6613 -6.6592 6.8719 5.4459 0.4888 -25.1593 0.2995 8.6669 1.2525 -3.7434 -2.6332 4.5815 -0.7979 -1.0378 -7.1119 3.5515 11.9455 -0.1863 4.8728 -7.8521 0.8367 6.3663
7.6947 6.2425 11.5697 1.8116 4.8361 7.4036 3.7505 7.9839 -0.1642 -9.4623 7.1969 5.9522 2.8167 -30.2668 -0.5160 11.5113 2.5619 -2.8360 1.4086 6.6692 1.0013 -0.5429 4.3186 7.1760 15.2354 3.0802 8.8946 5.1125 11.9147 8.6577
8.5065 5.7825 10.2483 5.8620 5.5348 7.8706 2.9150 9.6529 0.2619 -1.4254 5.6849 6.8749 4.8016 -9.9507 1.0543 11.9530 3.7002 -1.8942 6.0325 7.9036 -0.1630 0.0876 10.1147 8.5385 14.0172 5.4196 9.9424 17.7248 16.7468 9.5024
7.8840 3.1692 9.8550 10.3994 5.0567 6.7196 1.7767 10.3045 0.3060 8.1471 4.4220 6.0401 5.2327 12.5344 3.8638 7.7494 2.7539 -2.3449 4.9824 6.4884 -2.9808 0.2457 2.5586 6.0245 8.5705 1.8875 6.1046 11.9314 8.9739 3.9943
6.3448 0.9633 9.6713 11.9394 4.1163 5.4098 -0.5141 10.2518 0.1758 5.5734 3.3766 4.0041 4.9876 7.7478 2.0219 2.4213 1.6375 -3.4783 2.5947 3.1235 -2.0163 0.0316 -6.8064 2.3627 1.6117 -1.9676 2.2402 -3.8370 -1.3461 -0.9603
6.0991 2.9108 8.6028 9.1729 4.4590 5.1547 -2.2611 9.6580 -0.0429 -7.8169 1.0555 3.0220 5.0564 -19.1203 -6.7659 0.6076 1.2961 -5.3209 2.3691 -0.2637 0.6115 -0.2270 -6.1056 -0.4651 -4.6217 -1.8208 1.1592 -10.0906 -4.3894 1.4498
6.9626 6.0186 7.3412 6.4230 5.3097 5.3740 -2.5266 9.5309 -0.3063 -17.4792 -1.1566 2.6261 5.2211 -38.3797 -13.5662 0.9699 1.1535 -7.5848 1.7543 -2.4020 -1.2989 -0.3749 -0.0544 -3.1059 -8.6898 -0.9497 1.0699 -2.5067 -2.3542 2.1904
6.2536 5.6046 6.1262 4.1637 4.8688 5.1060 -2.8053 8.7467 -0.2704 -16.0474 -1.3194 1.4723 4.7473 -37.5859 -11.5379 -0.0900 1.5785 -8.0259 0.8558 -3.1984 -5.8009 -0.2423 -0.2114 -5.5954 -10.4726 -2.4969 -0.4125 5.8638 -2.8222 -6.3483
4.0702 3.1174 4.9338 0.4301 3.8775 4.5069 -3.7058 5.6727 0.0599 -8.0074 -1.0593 0.8267 3.6641 -23.1607 -7.0406 -1.9761 2.0201 -6.2203 1.0848 -3.6384 -6.9312 0.0214 -8.0651 -7.2187 -11.2697 -5.3209 -4.4726 1.5115 -9.3038 -15.1099
3.1585 1.6847 5.0965 -1.3203 3.6919 4.2733 -3.9854 2.8873 0.1218 -0.1467 -1.5989 1.7161 2.8360 -5.4416 -6.2140 -2.1018 1.3696 -5.4292 0.5022 -3.8799 -4.4010 -0.0444 -13.8819 -7.7438 -10.5148 -7.0197 -8.7627 -12.0798 -16.0931 -15.9165
3.6548 0.8264 6.3715 0.8062 3.5503 4.3452 -3.2427 3.2350 -0.2571 3.1900 -0.9053 2.7128 2.5818 2.8829 -5.2682 -0.0751 0.7103 -7.2438 -0.5332 -2.7187 -1.5322 -0.3888 -9.9237 -6.8899 -6.7667 -6.6226 -8.7281 -17.1978 -13.7397 -13.5167
4.1199 -0.7243 6.4390 4.2915 3.0514 4.3425 -2.3147 5.6468 -0.6227 4.1066 2.0915 3.2662 2.6327 2.0319 0.3769 3.1889 1.0659 -8.9815 0.7162 -0.3442 -0.5045 -0.5839 -1.3294 -4.9476 -2.7252 -5.3876 -5.0242 -6.4718 -4.4991 -12.5452
4.7947 -2.4477 5.6036 8.1159 3.1906 4.3635 -1.4981 7.9935 -0.6623 8.4862 5.5648 4.1366 3.0297 6.1789 8.8001 6.2778 1.3987 -9.0776 2.7779 1.2305 -0.8917 -0.6475 0.1028 -3.3575 -1.9959 -4.9096 -2.6078 5.1487 -1.0057 -10.5721
5.1776 -3.3187 5.5356 9.8662 3.4470 4.1732 -0.8145 8.3696 -0.4910 13.3259 7.3883 4.1841 3.3256 12.4475 14.1333 6.7241 1.2628 -9.4027 2.3729 1.0421 0.0264 -0.7298 -7.5704 -2.9696 -3.1313 -4.7712 -2.4478 1.5860 -6.6381 -6.7050
3.6958 -3.7054 5.1951 6.2858 2.5299 3.2475 -0.9245 5.6620 -0.3760 12.7682 7.1951 2.1587 2.6650 9.6651 14.1007 3.9172 0.9171 -10.5921 -0.5243 -0.0887 1.9151 -0.6452 -13.5049 -3.1242 -3.5796 -4.5614 -2.4275 -10.5060 -12.0411 -3.1335
1.7290 -5.1774 4.6568 2.6868 1.3192 2.2481 -1.9375 3.0433 -0.4690 13.4749 6.0781 0.0147 1.6404 12.0629 13.1105 0.9306 -0.2229 -10.9487 -3.3685 -1.2129 0.6339 -0.4229 -9.8026 -3.0167 -3.9705 -4.8088 -2.1479 -11.3541 -9.6653 0.6260
2.2128 -6.9079 6.6950 6.7209 1.4362 2.5656 -2.4818 4.7333 -0.5446 20.6352 4.6284 0.3232 1.3237 30.9730 13.2252 0.4063 -1.3856 -10.1105 -3.0642 -1.5228 -2.2602 -0.3518 -2.0873 -2.3061 -3.7981 -3.6579 -1.1207 2.0999 -1.4805 4.1367
4.5589 -5.5219 10.2785 12.4114 2.8379 4.3963 -1.4933 7.6260 -0.2279 25.0517 3.0934 2.8762 1.0035 44.5538 10.9788 1.8722 -0.9547 -9.1729 0.1580 -0.0531 -0.5379 -0.2960 -0.5966 -0.6651 -0.3159 0.4126 1.1183 11.1315 3.8626 3.0905
5.7393 -1.7737 11.2918 9.0001 4.3490 6.4505 -0.1390 5.8674 0.3195 22.4329 3.2835 5.3475 0.1536 37.6752 8.5107 3.5120 -0.2723 -8.5632 1.6519 2.4455 3.9641 0.0101 -6.2232 1.4684 5.3040 3.9288 2.5124 3.3040 0.1481 -1.7080
5.2122 -0.6318 10.4165 2.1316 4.8259 7.1865 -0.1187 2.7657 0.5895 19.5059 5.8093 5.5949 0.4430 24.6147 11.2122 3.4616 -1.1694 -8.2419 0.1438 3.0705 4.2398 0.3551 -9.4695 2.5030 7.8861 4.4040 2.3101 -9.3394 -6.4965 -2.7093
5.0442 -2.0915 10.8437 4.5051 4.1275 6.1613 -0.6834 5.2433 0.5760 15.7241 7.2337 3.8648 2.3526 14.1599 14.0413 1.3493 -2.4450 -7.9595 -0.2551 0.8073 0.6232 0.4907 -3.9750 1.2916 5.4244 3.6111 2.3175 -9.1671 -4.9798 1.2834
5.8298 -1.6665 10.7324 12.6298 3.3891 4.3724 -0.2342 10.2071 0.5612 6.7949 5.5262 2.2230 3.2424 0.6573 10.4355 -0.9625 -3.2332 -7.0948 0.7427 -2.0988 -2.8535 0.4553 2.7330 -1.8946 0.2937 0.9089 1.2618 1.3313 1.4437 1.9696
5.6974 -0.2279 7.5907 14.5111 3.2339 2.9189 0.1805 10.0777 0.4632 0.6180 3.6176 1.0928 1.7561 -8.7368 6.5049 -2.6997 -4.2739 -5.9216 -0.7477 -4.3340 -5.9894 0.2493 -0.6752 -5.7191 -5.4130 -4.7247 -3.0063 5.0323 -0.3313 -4.2938
4.0221 -1.7356 4.9713 9.5213 3.1163 2.0971 -1.1004 5.5376 0.2596 5.2357 3.5504 -0.4512 0.0561 -1.5985 8.1635 -4.8149 -4.9847 -5.8111 -4.6322 -6.3928 -7.9381 -0.0059 -11.2354 -8.1950 -10.0991 -8.9732 -7.0893 -5.2973 -9.9905 -10.6709
2.9588 -3.9718 5.5821 5.0779 3.1651 2.0839 -2.9113 2.2074 0.2729 11.9901 3.4393 -1.5774 -0.3017 11.0373 8.9309 -6.3978 -4.9956 -7.2761 -7.7649 -7.6738 -7.1906 0.0599 -14.7785 -8.2914 -11.4895 -9.4164 -7.5574 -18.7573 -14.7892 -11.7722
3.5141 -2.9260 5.6410 5.5367 3.7945 2.7369 -3.7642 2.0133 0.4968 10.6377 1.0418 -1.4766 -0.5304 13.5963 2.5227 -6.5217 -5.8180 -9.1198 -8.1375 -7.6381 -7.5268 0.4383 -7.2064 -7.4365 -10.2783 -9.6942 -7.2945 -20.2130 -10.5056 -11.2473
3.7699 -0.6373 3.4806 9.4809 4.0757 3.1834 -4.3049 3.3149 0.6181 5.7297 -3.2404 -1.5337 -1.7192 12.0516 -6.3154 -7.3508 -7.7759 -9.7301 -4.9987 -7.5951 -11.8079 0.6981 -0.6299 -7.7148 -10.1893 -11.3600 -9.0377 -8.7187 -4.9688 -13.9687
2.7400 -0.0164 2.8715 10.4812 3.4515 3.1561 -4.7788 3.5986 0.6195 2.9717 -5.7289 -2.1632 -3.3757 8.2835 -9.2017 -9.7473 -9.5979 -8.8108 -1.3397 -8.1563 -15.2950 0.6859 -5.0775 -9.1335 -11.8768 -11.8785 -10.7253 -0.9398 -5.5980 -16.9977
1.4385 -0.1419 3.4355 4.6504 2.8197 3.0185 -4.7439 1.0693 0.4963 0.0909 -3.8938 -2.3310 -4.5321 -6.1438 -4.6700 -11.3268 -10.8321 -7.7462 -2.4029 -8.3846 -14.3088 0.4736 -14.4066 -9.8952 -12.9853 -10.3782 -10.8899 -9.7719 -12.3466 -13.5784
0.0112 -0.8475 0.8499 -2.4637 2.3842 2.5098 -5.3381 -2.5657 0.1137 -2.2717 -0.8109 -2.7067 -4.0250 -19.9562 1.7370 -11.0873 -11.0337 -7.7009 -6.3561 -7.9128 -11.7475 0.0699 -15.2072 -8.5785 -13.1349 -8.2449 -10.4256 -22.4940 -17.4069 -5.2317
-1.4797 -3.0373 -2.7596 -3.8989 1.5706 1.7136 -6.9842 -2.7559 -0.2250 -2.1052 0.4145 -3.5142 -1.7141 -21.1244 5.6508 -9.5934 -9.1747 -8.2163 -5.3751 -6.5950 -10.4089 -0.2511 -4.8415 -5.6145 -12.7507 -6.7913 -9.3077 -17.7964 -12.4512 -1.1964
-1.7668 -5.0861 -2.0164 -0.8099 0.6630 1.4063 -7.4711 1.4283 -0.0724 -2.1345 1.4423 -2.5171 0.2161 -20.2219 7.9359 -6.6776 -5.6139 -8.4538 0.9253 -3.8938 -10.4929 -0.1197 4.6821 -2.7531 -10.8482 -6.9392 -7.7883 -1.0481 -1.6541 -3.6066
-0.8630 -5.4456 1.4902 1.8473 0.1391 1.4776 -5.7715 5.1080 0.4468 -0.6703 3.1357 0.3340 0.3862 -17.0179 9.9930 -3.1158 -1.6964 -7.9265 4.5746 -0.4046 -11.0167 0.3422 2.5392 -0.9797 -7.3556 -8.3401 -7.2960 3.8600 2.1389 -5.2211
-0.0785 -5.0635 3.6325 2.3349 -0.0349 1.5044 -3.5332 4.8586 0.9036 6.2537 3.8159 1.9938 0.4807 0.1927 10.7424 -0.4508 1.8998 -6.3371 2.3993 2.3458 -8.5299 0.7057 -6.4401 -0.0742 -3.6335 -8.8431 -7.0563 -7.2107 -3.0760 -3.4818
0.2247 -5.3018 5.3558 1.4253 -0.0551 1.5854 -1.9876 3.2184 1.0236 13.0334 4.1141 1.5820 1.4616 17.8330 10.3552 1.4131 4.4508 -4.9396 -0.7860 3.3722 -2.0331 0.7112 -8.9742 -0.0574 -0.9827 -6.8578 -5.0494 -15.4317 -6.9468 -2.7149
0.3320 -6.6083 8.0310 0.6899 -0.2320 1.5171 -1.3713 3.6021 0.8202 14.3970 5.0251 1.0288 2.1400 20.8712 10.4870 3.2139 5.3555 -5.5146 -1.1345 2.5081 2.4181 0.4606 -1.5219 -0.8427 -0.3390 -3.6359 -2.4425 -7.9728 -3.3755 -2.7008
1.6021 -6.6647 10.2128 2.4290 0.3670 1.9417 -1.2014 6.0695 0.6278 13.9299 4.9025 1.9105 2.7337 19.6944 9.6712 4.9460 5.3600 -6.7982 0.0922 0.9769 1.5580 0.3274 5.6025 -1.3977 -1.2087 -1.6365 -1.7482 7.1162 2.9133 0.1795
5.9684 -1.5530 11.8563 6.3588 3.5693 4.3535 0.4779 9.0128 0.5079 9.8060 4.5742 4.3896 3.9844 10.4349 6.3398 6.8013 4.8626 -6.7976 0.1582 0.5669 1.1550 0.3899 1.9106 -1.5526 -1.8937 -1.4054 -2.4950 11.5983 3.6015 3.0517
10.9996 5.8959 13.0784 8.5060 7.5627 7.1864 3.4634 10.4866 0.0432 -2.4253 6.6086 6.4568 4.1644 -20.4942 3.0953 8.5774 3.0703 -7.3432 -2.0655 0.3444 4.1587 0.3055 -9.5377 -2.8281 -2.2896 -1.9539 -2.7867 -1.0602 -3.5578 1.2330
11.2562 7.4189 11.3747 7.1459 7.9300 6.8964 3.7494 8.7464 -0.5399 -9.8581 7.0717 5.3106 2.5839 -37.8126 0.1498 8.3915 1.1671 -9.9824 -5.3757 -2.0896 5.6083 0.0624 -14.5490 -5.3894 -3.3554 -2.5658 -2.0522 -14.8649 -10.5279 -3.0878
7.4269 3.5134 6.4434 5.5216 5.3156 4.2055 0.9416 4.7806 -0.3473 1.3270 1.1209 1.7948 1.7427 -2.3631 -5.2942 5.2628 1.8258 -11.8807 -6.8093 -5.3423 4.1043 0.0777 -6.7085 -6.6588 -4.0231 -2.4790 -0.6090 -10.5576 -8.4152 -6.3050
5.1905 2.1953 2.2452 6.1319 4.1590 2.8417 -0.2375 2.2991 0.5059 17.0047 -5.5506 -0.5536 2.2521 42.9647 -8.9810 1.3454 4.3405 -11.8119 -5.3035 -6.2259 3.4186 0.4470 1.7774 -5.4132 -2.9662 -1.5156 0.2590 5.6563 -1.4329 -8.4189
5.4590 3.6999 2.2567 6.7037 4.6007 3.3843 0.7746 3.1874 0.9228 17.1187 -5.0863 -1.0807 2.2923 37.8661 -4.5926 -1.4297 6.1313 -12.5371 -4.0141 -5.5883 3.2536 0.8113 -2.0017 -3.9930 -1.7516 -1.1459 -1.0457 9.3936 -0.9156 -8.5615
5.0982 2.6843 6.1540 4.0933 4.1375 4.0167 0.1510 4.8993 0.6624 7.7158 -0.4884 -1.6602 2.0388 3.5762 2.5771 -3.4893 7.0546 -13.9720 -5.4944 -5.7921 1.9367 0.8759 -11.8743 -3.9533 -2.2381 -2.4447 -3.9296 -5.9332 -6.8711 -5.6836
3.3139 0.0975 8.7443 -1.2440 3.2384 4.0098 -2.1133 3.5158 0.4338 2.6975 1.2037 -2.9002 1.4727 -12.6854 3.5244 -4.8831 6.4663 -13.8062 -6.7861 -6.4001 1.2875 0.6555 -13.6792 -4.3976 -4.2467 -5.0646 -6.5843 -20.4326 -9.7082 -3.4076
0.8102 -1.0573 4.7743 -6.3597 2.8286 3.2468 -3.7874 -0.9610 0.4186 1.1257 -0.1042 -4.5394 -1.2100 -14.7636 1.0181 -5.2615 2.5775 -13.8517 -4.0829 -6.8599 0.1239 0.3485 -6.5822 -5.5655 -7.6674 -8.6517 -8.6482 -17.8064 -7.0338 -6.1825
-1.8331 -2.5036 -2.3887 -8.1153 1.8602 1.7059 -5.2124 -3.8870 0.2432 -0.4202 -0.7533 -6.2598 -4.3030 -19.1943 2.4798 -5.7541 -2.0690 -16.3029 -0.0505 -7.7108 -4.6797 0.2204 -1.3048 -7.5354 -11.6101 -12.3429 -10.3036 -6.5774 -4.8538 -12.8070
-3.0827 -4.6432 -5.3664 -5.0810 0.3314 0.1795 -6.2168 -2.3140 0.0187 -0.9968 0.1736 -6.7774 -3.9309 -21.4287 6.2040 -6.6909 -3.2007 -18.3141 0.2459 -7.5540 -8.8984 0.4509 -3.7958 -7.3061 -12.6557 -13.9659 -10.8680 -3.9820 -6.1996 -17.0366
-2.3718 -4.7711 -3.6321 0.0193 -0.5022 -0.3767 -5.3789 1.2847 0.1792 -2.6498 1.5637 -5.3679 -0.8012 -21.5363 6.9481 -6.2705 -1.0873 -16.5793 -1.5848 -4.6535 -6.3943 0.8404 -8.8521 -3.5029 -9.2568 -11.5219 -9.2093 -11.0692 -8.0808 -13.9471
-1.5365 -4.1946 -0.0191 3.0123 -0.9508 -0.1286 -3.7826 4.0338 0.6207 -4.6156 2.4438 -3.3186 1.7310 -20.3810 5.3401 -3.3802 2.2822 -12.0216 -0.1563 -0.5374 0.0455 0.9557 -7.3535 0.8593 -3.9941 -5.5577 -4.8730 -13.9081 -5.6029 -6.9515
-2.0410 -6.0170 4.6122 3.0800 -2.1672 -0.3312 -2.9525 5.7201 0.7461 -0.9709 1.9044 -1.8122 2.6652 -6.4301 3.7583 0.9471 5.9604 -7.8624 4.7401 2.5242 3.5190 0.7478 2.0758 3.8485 0.8734 0.2553 0.3526 -3.7574 3.0415 -2.9831
-2.9096 -7.9372 7.7173 1.4135 -3.5054 -1.2632 -1.8006 6.0260 0.2388 7.9710 0.5925 -0.5636 2.9311 17.7695 3.9098 4.4669 7.9072 -6.4077 8.1064 4.7647 2.5828 0.5017 9.4624 6.2136 4.5090 2.4085 3.1313 10.5755 11.6512 0.5351
-2.1029 -6.9077 7.6251 0.0221 -3.1608 -1.2233 0.0808 5.4973 -0.4515 14.1339 1.7229 0.7523 3.7571 27.8954 8.6130 5.7489 6.8022 -7.3758 5.7095 6.6179 0.6305 0.2355 5.9527 7.5188 5.4993 0.6860 1.7925 12.2208 11.1337 8.7261
0.3579 -5.2870 8.0191 2.3279 -1.5234 0.2529 0.8469 7.2019 -0.6226 9.3219 6.0590 1.8971 5.2176 8.7523 14.1673 6.3568 4.5359 -8.5262 -0.6062 7.1824 0.7353 -0.1359 -2.6443 7.2139 4.2927 -1.0248 -1.1895 -0.8863 3.0160 14.2422
1.5331 -5.5009 10.7464 7.1500 -1.3838 0.7203 0.2662 11.2256 -0.3721 -5.5881 8.7425 2.8174 5.7797 -24.0755 11.6501 8.5432 3.4663 -8.2761 -2.1942 6.8989 2.7692 -0.3764 -3.3277 7.1093 4.2284 3.2437 -0.5647 -10.2373 -0.7971 11.4464
0.2298 -5.6659 12.6347 7.3503 -3.0805 -0.6709 0.8228 12.7334 -0.3655 -13.9932 7.0259 3.8071 4.9660 -34.5892 4.7674 11.1968 3.7731 -7.0232 5.2479 7.4555 3.4620 -0.2880 4.8142 7.9440 6.5227 11.8828 4.1762 -2.0697 4.9253 10.0532
0.0043 -3.9672 13.2031 2.9392 -3.1489 -1.1687 3.7267 10.4233 -0.5001 -4.1053 5.3183 5.1261 3.9435 -11.2731 5.1680 12.2109 3.9537 -6.2907 11.7526 8.3605 1.2569 -0.0043 9.5840 7.5120 8.6895 14.1206 6.4222 11.8026 10.9560 13.6446
2.9479 -1.3101 13.5859 2.5615 -0.4622 0.4391 6.4973 8.6243 -0.1949 7.5157 6.7153 6.2451 3.0426 8.8051 9.8041 12.0348 2.8110 -7.0883 7.9653 7.6660 -0.2091 0.2763 4.4378 5.3108 9.3033 8.1697 3.9915 11.8773 8.4733 11.4826
5.2509 0.5658 11.3828 5.6108 1.7032 1.8736 6.1364 8.1667 0.2260 4.3153 8.1435 5.8460 2.2813 -0.9219 9.3360 11.2307 1.7096 -8.2811 1.9416 5.5000 1.5840 0.3871 -2.7442 3.9395 9.0571 4.6505 2.8352 -0.3826 2.7889 3.6945
4.5550 0.4407 7.7334 4.5293 1.9737 2.0345 3.7023 6.5274 0.1593 0.3358 7.6235 4.0886 2.5044 -9.7818 7.5991 9.3291 3.2477 -7.6336 2.8380 3.5963 4.0061 0.2601 -2.1444 4.0190 7.5324 6.4840 4.5868 -6.8447 2.8848 1.4653
4.3524 -1.0741 8.4166 3.4350 2.4694 2.2515 2.8155 5.8904 -0.0592 8.4097 7.0958 3.1835 3.3756 6.7197 10.4249 7.4520 6.5642 -5.6239 4.2940 2.6127 5.7882 0.1004 4.4353 3.3331 4.4364 7.6071 5.1941 0.8887 6.4950 3.2932
5.6890 -1.8944 11.2556 7.0953 3.1748 2.6691 3.5616 7.8985 -0.0290 14.6612 7.2276 3.5401 3.5386 19.1425 13.8524 6.5070 8.0734 -4.9836 1.1067 1.9421 7.6259 0.0805 6.5045 1.4652 1.9096 7.1542 4.4366 11.1176 6.0263 1.8749
4.5346 -1.6936 8.4859 6.3537 2.0207 2.1643 2.5870 7.4143 -0.0501 9.4375 6.7595 2.7181 3.3729 6.0174 14.2270 4.5128 7.4271 -5.4489 -1.0718 1.0342 7.7175 0.0504 -0.0278 -0.0309 0.9999 6.2083 3.5154 8.5361 0.5272 0.5013
0.9929 -2.0882 2.1310 -0.9127 -0.0158 1.1826 -0.5370 3.0929 -0.2894 2.7817 5.8636 0.1592 4.0665 -9.7166 12.7613 0.7836 6.8620 -4.4876 -1.0765 0.0347 6.6906 -0.1217 -6.1359 -0.8746 -0.1778 3.2461 1.3946 -4.0972 -4.7265 0.6112
-0.5953 -3.5743 -0.3218 -2.6462 -0.7595 0.7940 -3.0477 1.2111 -0.5444 1.4307 4.9836 -1.6805 5.1026 -9.2376 10.1176 -1.6382 6.3572 -3.0635 -2.5130 -0.6025 7.9622 -0.3460 -2.9385 -1.4080 -1.9136 1.4911 0.2667 -9.0767 -4.1543 -3.3618
-0.6115 -4.9850 0.0169 1.4357 -1.2756 0.3815 -4.0399 2.7194 -0.7295 3.5219 2.5553 -1.8496 5.6034 2.7627 6.3120 -1.2578 5.7201 -3.7969 -2.4273 -0.6920 9.5719 -0.5097 4.7492 -1.0069 -1.8425 4.6346 2.8594 0.0785 2.4498 -7.2158
-1.7167 -5.2341 -0.3268 0.8868 -2.6469 -0.6157 -3.9282 2.7973 -0.8073 8.5372 -1.1305 -1.5512 6.1093 19.5739 3.1257 -0.1703 6.7058 -5.4546 1.2296 0.0054 9.0433 -0.5469 6.3518 0.5319 0.3642 7.0857 5.3995 9.1564 7.7127 -3.5932
-2.1323 -4.0647 2.0652 -2.7085 -2.9937 -1.0362 -2.0006 2.2354 -0.7002 11.5332 -1.8293 -0.8322 6.8323 26.5736 2.4949 0.4375 8.6197 -5.3619 3.0395 1.5799 10.0260 -0.4567 0.9188 2.1288 2.6300 3.8749 4.2211 5.5566 5.4100 0.5100
-0.5704 -1.6239 7.3835 -3.4750 -1.8657 -0.4887 1.0568 3.6774 -0.3996 3.5196 1.0661 0.8018 6.5327 6.4187 1.9967 1.6637 8.2551 -3.6972 1.3316 3.0528 12.7848 -0.3035 -3.0252 3.0063 4.5864 0.4254 2.5342 -4.0994 0.1530 -0.2728
0.1720 1.0649 8.3056 -4.1326 -1.4051 -0.1865 2.5803 4.3268 -0.1313 -10.4896 2.4308 2.2147 4.8821 -23.7125 -1.9793 4.0613 5.7771 -1.8040 1.5607 3.7449 12.3817 -0.1508 0.9011 3.7870 6.9624 1.4999 3.8970 -4.9462 1.1236 2.1764
-0.2759 2.1002 4.2432 -4.5640 -1.5932 -0.1158 2.2262 3.2074 -0.3367 -14.2870 1.4981 2.4817 3.5094 -28.8427 -4.6768 6.2371 4.5262 -0.2815 4.3534 4.6332 9.9824 -0.1280 9.0252 5.0246 8.3828 4.2536 6.9806 6.2374 8.4560 8.7204
0.5972 1.7276 2.1509 -1.9407 -0.8206 0.6265 2.2560 2.9990 -0.7624 -6.9484 2.4432 2.4676 3.1508 -14.5793 0.0754 6.1356 4.9406 -0.0036 3.2338 6.0402 9.6741 -0.2738 10.8924 5.9516 7.7910 5.8619 8.5438 16.1271 12.8209 10.6314
1.3166 2.0688 0.9736 -2.5662 -0.0254 1.0067 2.8354 1.3135 -0.4734 -1.5886 4.4812 2.6302 2.4129 -9.6166 6.8637 3.8250 3.9214 -1.3790 -2.3334 6.5845 9.3070 -0.3335 3.3384 6.2258 7.2366 5.8862 7.3746 11.0845 8.7696 8.4545
-1.2373 2.0791 -4.7775 -9.4540 -1.0165 -0.5591 2.0659 -4.2603 0.3244 -0.9724 4.1244 1.9885 0.8469 -11.4294 8.8302 1.8755 0.4947 -2.8507 -3.1082 5.9098 6.7130 -0.1529 -2.3200 6.5703 7.8149 4.1944 5.7499 -2.7525 3.0192 6.9976
-5.1503 -0.5126 -9.9558 -12.9842 -3.2676 -3.3154 0.7006 -7.5045 0.5177 -0.7890 2.6931 0.3924 -0.2046 -8.3996 8.4428 1.7980 -2.8593 -3.3953 4.8297 5.0617 3.9907 0.1289 3.0294 6.3664 7.2820 1.7271 5.1067 -6.5854 4.1341 5.5329
-7.0382 -3.4629 -8.2364 -10.8401 -5.1966 -5.3880 1.0151 -5.3849 0.2799 -1.6441 2.0714 -0.7427 -0.8849 -7.7136 8.1685 2.4318 -4.9095 -4.4704 11.7731 4.0386 0.6853 0.4663 10.3060 4.2825 4.8991 -1.6339 2.2065 2.9061 8.5184 5.5948
-7.5157 -4.1091 -6.3339 -11.8550 -6.0776 -6.2914 1.8609 -5.4520 0.5241 0.0628 0.9432 -0.9349 -2.3247 -4.0174 7.2562 2.1468 -6.3077 -6.0815 9.1309 2.2208 -4.2538 0.8756 6.7495 1.4134 2.8074 -6.2108 -4.0013 8.7406 6.7986 8.0193
-8.1202 -4.3441 -9.9776 -15.2344 -5.9479 -6.6954 1.0165 -10.1913 1.0312 7.5869 -0.3506 -1.4916 -3.5047 12.1539 7.6878 0.5474 -6.5114 -5.4750 2.4657 0.2595 -5.9924 1.1799 -3.9198 -0.2728 1.1817 -8.3754 -8.4297 -0.4234 -0.9981 5.3280
-8.1412 -5.4117 -12.4111 -13.6342 -5.0847 -6.7917 -0.1344 -12.2907 1.0246 11.1176 0.1789 -2.7275 -3.8519 19.4300 9.7865 -1.3123 -5.8577 -3.3803 1.0463 -1.1536 -2.8554 1.1503 -8.7742 -1.4612 -1.4817 -7.0741 -9.3588 -14.3247 -7.0441 -4.3726
-6.7922 -5.0614 -9.9007 -9.1001 -3.7140 -5.9394 0.1597 -9.7991 0.4654 6.5478 0.8339 -3.1245 -5.3778 8.1152 9.0803 -2.0769 -7.0456 -4.5216 3.4424 -2.7679 -3.0611 0.7521 -4.3105 -3.8722 -3.8940 -7.9952 -11.0225 -16.1177 -6.8633 -9.6169
-4.5977 -3.0106 -8.1164 -5.1136 -2.0931 -3.8890 0.3285 -7.4790 -0.0217 6.2363 -1.5329 -2.4553 -7.7975 8.7292 3.9922 -1.9486 -9.4712 -8.6654 3.1000 -4.9867 -9.2775 0.2983 1.0694 -6.6476 -4.2323 -11.1873 -13.3991 -5.2121 -3.1394 -4.0395
-2.0489 -1.3851 -7.9433 0.6745 -0.3124 -1.3819 -0.8597 -5.7458 0.0503 11.9508 -5.1325 -2.2857 -7.8766 25.9443 -1.7303 -2.1347 -8.7620 -10.1381 0.3807 -6.8253 -11.9580 0.1983 -1.3736 -7.7742 -4.6424 -9.5806 -12.4418 1.7488 -2.6499 2.9579
0.5456 -0.1803 -5.3497 6.1395 1.7825 0.6660 -1.9840 -2.8721 0.4056 9.5663 -5.3833 -2.9620 -5.8185 21.2719 -4.3805 -3.1725 -5.0367 -8.1654 -0.7523 -8.1531 -7.7933 0.4250 -10.2508 -8.1073 -7.9066 -4.5490 -9.7320 -6.8581 -8.9949 1.3038
1.6921 0.4594 -3.1235 5.8736 3.1688 1.3630 -2.7945 -1.3067 0.4018 -0.3488 -2.5504 -3.6633 -4.5937 -6.8013 -3.0456 -4.9863 -2.8461 -7.3019 -0.7266 -10.0290 -4.3480 0.5922 -14.5509 -9.7285 -12.4907 -3.0277 -9.1529 -19.9846 -15.7100 -6.0318
0.1578 -1.9705 -4.9956 2.7344 2.1377 0.2918 -4.8847 -2.1671 -0.0087 -1.4374 -1.4492 -4.3730 -3.6547 -12.2693 -0.0269 -6.7957 -2.5177 -7.8346 -1.0694 -11.7689 -3.9123 0.4570 -7.3990 -11.2169 -14.8275 -3.1978 -8.6082 -17.9332 -12.8828 -10.4912
-2.0744 -6.0777 -5.7793 2.0820 -0.2726 -1.0267 -7.1434 -1.9882 -0.3306 7.0312 -3.3127 -5.1033 -1.1363 10.9057 1.3715 -7.5328 -0.7042 -6.4156 -0.4765 -11.5022 -2.9667 0.1272 2.5506 -10.2283 -13.8503 -0.9872 -5.6301 -2.2799 -3.0634 -10.0195
-2.2406 -6.1243 -1.6855 0.7854 -1.1702 -0.9037 -6.3696 -0.4620 -0.3138 9.6295 -4.2283 -5.3113 1.0313 18.3913 1.2666 -7.8803 2.6063 -3.6069 0.2243 -10.0281 -2.0171 -0.0446 1.9275 -8.4695 -11.1822 1.1670 -3.2944 5.4040 0.8234 -7.8430
-0.9878 -2.0373 1.2437 -4.0478 -0.4580 -0.4577 -3.0955 -1.2167 -0.1351 3.7115 -2.2556 -5.1038 1.1796 0.4496 2.1273 -8.7074 5.1530 -1.9348 -2.8082 -9.3822 -1.4946 0.1233 -7.4274 -7.9330 -8.6049 2.0289 -3.2419 -3.9455 -4.4081 -6.3568
-0.2606 -0.0018 -0.6118 -6.1351 -0.1255 -1.0245 -0.8840 -2.8263 -0.0426 0.8841 0.5731 -4.7777 1.6309 -8.5255 5.0091 -7.9207 6.6766 -0.9601 -6.9987 -8.4081 1.2576 0.3454 -10.7573 -6.8936 -6.3886 3.2500 -2.2124 -14.4613 -7.9701 -5.4680
-0.2974 -1.5626 -2.4494 -2.6794 -0.5777 -1.4001 -0.5399 -1.1200 -0.1420 3.4354 2.5966 -3.9433 3.2856 -1.6355 8.9653 -4.3468 7.6797 0.0955 -4.1538 -5.0707 4.7383 0.2759 -2.1985 -4.1960 -3.8873 3.0389 0.9233 -8.9040 -2.1899 -3.3582
-1.1573 -2.3990 -2.5638 -1.1560 -1.4800 -1.1036 -0.5004 1.4492 -0.3390 2.8517 2.9368 -2.8272 3.6998 -1.7911 10.3143 -1.5454 8.2071 0.2938 3.5772 -0.8549 5.3968 0.0124 7.4594 -1.1816 -0.9484 0.7311 3.5583 7.9455 7.7742 0.7989
-3.2362 -1.4103 -4.1421 -5.2858 -3.2634 -1.8675 -0.4754 0.0337 -0.3886 -1.2077 0.8910 -2.4614 2.8200 -6.7757 6.3471 -1.9708 9.1004 0.1491 5.0425 1.8555 5.7438 -0.0691 6.8489 1.7399 1.8695 1.5486 4.9778 16.1265 11.8428 4.8665
-5.6987 -1.8211 -6.2198 -10.6494 -5.3815 -3.9794 -0.6129 -4.3413 -0.1581 -0.6716 -0.9933 -2.6647 2.5533 0.6575 2.5333 -2.7995 10.5884 1.3712 -0.2212 3.3567 9.0404 0.1855 -0.9639 4.4957 3.5670 7.4331 6.2898 6.9978 6.9856 5.6318
-6.7481 -3.8887 -5.9000 -12.4801 -6.1639 -5.4664 -0.0884 -6.4877 0.1481 1.5930 0.9639 -2.1621 2.0828 5.8973 5.0684 -1.2565 10.8608 2.9496 -2.7049 4.7672 11.6631 0.5106 -3.2117 5.6908 3.5916 11.2534 6.5883 -5.5659 1.3600 3.6468
-5.5687 -4.0793 -4.1894 -7.6645 -5.5917 -5.4011 1.6278 -2.7093 0.1252 -5.5877 4.7970 -0.7829 0.7166 -13.8547 8.8650 1.7405 9.2905 2.4576 0.7310 6.1470 9.8939 0.4773 4.9758 5.3254 3.3223 8.1358 4.6835 -3.7598 4.4729 5.8918
-4.2762 -2.4560 -2.8146 -0.9044 -5.7639 -5.2244 3.6678 3.1582 -0.3441 -14.8252 5.4725 0.3818 0.4554 -33.4408 8.0471 4.0819 8.4629 0.5488 5.3535 7.3754 7.1003 0.0168 13.2672 5.3652 4.7461 4.0390 2.4699 10.1598 13.0143 15.4657
-5.9388 -3.3724 -1.9565 -4.2388 -7.7289 -6.2760 4.1946 2.3885 -0.7666 -8.6184 3.4677 0.6850 1.5947 -17.2888 7.7705 4.6854 10.2556 -0.0304 6.3481 8.3828 7.8406 -0.3553 11.1412 6.5396 7.5294 5.5150 2.8998 16.9404 15.4184 21.7343
-9.4813 -6.9188 -2.2109 -16.1375 -9.8816 -7.6540 2.5518 -4.2059 -0.6550 2.5482 3.3770 0.4072 1.8307 3.4512 12.0997 3.8668 12.5912 0.9790 3.6001 8.4798 11.5077 -0.2325 3.0491 7.6349 9.6923 10.3266 5.6611 7.4301 9.6338 16.9252
-11.3384 -8.9968 -4.2837 -21.2654 -10.6380 -8.1450 0.5257 -7.5707 -0.3929 -0.5013 5.4148 -0.2834 0.3825 -9.9814 16.2933 2.6612 12.3832 1.2401 1.3487 7.0403 14.3961 -0.0476 0.7857 7.5818 10.3458 13.1393 7.2504 -4.0480 4.9820 10.3430
-10.9946 -9.1221 -6.9176 -16.9012 -10.1848 -8.1260 -0.0187 -6.8711 -0.6597 -3.1127 5.2665 -1.2893 -1.1016 -16.0784 16.9672 1.7179 9.7448 0.2085 1.1983 5.0618 13.2122 -0.3448 6.6213 6.8157 10.0150 11.3790 5.9140 -0.4151 7.8414 9.9750
-9.0761 -7.8195 -6.8989 -11.7656 -8.5947 -7.5200 1.1008 -5.8783 -1.2699 6.9000 2.0544 -1.6284 -0.9398 12.2678 14.1614 1.4494 6.9682 -0.1069 0.8324 4.1684 8.2631 -0.8302 11.2860 6.1487 8.9464 5.9337 3.8450 12.5583 13.4905 12.3182
-5.2923 -3.0384 -4.0188 -7.0684 -5.7552 -5.7354 3.3899 -3.1816 -1.5724 6.9636 -0.3468 -0.8656 0.1962 17.7880 7.4328 2.0830 4.7670 0.2117 0.4827 3.7945 4.4053 -1.0526 6.6622 4.8210 6.7510 1.2385 2.5633 14.5680 12.4701 14.5870
-2.0031 2.9492 -3.8831 -3.3290 -3.1539 -4.2382 5.5695 -1.1697 -1.4407 -7.2069 -0.0561 -0.4364 -0.1313 -12.9268 0.7015 2.8721 2.3523 -1.4010 0.7573 2.3947 4.0848 -1.1019 -3.5479 1.9350 4.0706 -0.1256 0.3430 0.3292 3.3386 13.4561
-1.7072 4.9871 -9.0372 -5.5601 -1.8821 -4.2112 6.0069 -5.0791 -1.1730 -10.1976 1.2398 -1.0204 -2.4417 -22.1518 -0.0908 2.6647 -0.4293 -4.6652 -0.5829 0.6025 3.0203 -1.0710 -7.6915 -1.3749 1.9649 -1.0256 -3.4071 -13.6471 -4.2356 5.0672
-1.8838 4.9780 -13.4566 -9.3997 -0.5340 -3.8059 5.2837 -9.8431 -1.1557 -3.0736 1.6884 -1.5143 -5.1200 -9.6066 2.0123 1.0263 -3.6633 -6.8977 -2.2489 -0.7500 -2.1116 -1.0346 -2.0449 -4.1112 -0.7586 -3.4791 -6.6287 -11.9882 -3.4136 -2.3735
-0.3483 7.0080 -13.7241 -7.3085 1.7269 -2.1511 4.9190 -9.7471 -1.6149 -2.2281 -0.2805 -2.0717 -7.5870 -8.9842 0.1117 -1.8959 -7.8156 -8.3001 -1.0179 -3.2058 -8.6170 -1.3378 2.5856 -7.0955 -5.7483 -6.3143 -9.1151 -1.0695 -1.2146 -0.5804
-0.1297 7.8940 -14.6461 -4.9499 2.9929 -1.4958 3.7629 -10.8000 -2.0910 1.5804 -4.6455 -3.8630 -9.7467 1.1376 -4.0769 -5.5260 -12.3276 -10.4334 0.0844 -7.3781 -13.1401 -1.8199 -3.1678 -10.5460 -11.5030 -9.0449 -12.4760 -0.1868 -6.7608 1.9073
-3.0509 4.4294 -18.3402 -8.7729 1.7837 -2.6541 0.3219 -16.4228 -1.9269 12.7982 -8.1320 -6.1392 -10.4683 29.1075 -6.2488 -8.5892 -15.5325 -11.6237 -2.2877 -10.5606 -14.8703 -1.7910 -12.0688 -12.9062 -14.8762 -10.1434 -14.8868 -12.8666 -15.5952 -2.4321
-6.0155 0.8489 -20.7405 -12.3859 -0.5908 -3.6938 -3.2079 -19.2143 -1.4024 12.2659 -8.6457 -7.4806 -9.6695 31.6409 -8.2229 -9.8091 -16.2809 -9.5721 -4.0154 -10.5327 -14.2156 -1.3007 -11.0284 -12.7353 -14.2011 -7.4705 -12.6947 -20.0923 -16.1814 -7.3525
-6.9575 0.7734 -20.2405 -10.8980 -2.3213 -3.8781 -4.0108 -16.4189 -1.2233 -0.2855 -8.7231 -8.0941 -8.7132 8.8513 -11.6312 -9.3435 -15.3864 -5.7744 -1.3992 -8.3390 -12.9576 -0.9988 -0.8019 -10.1659 -10.1751 -3.7630 -7.2227 -9.0721 -6.6425 -9.4386
-7.6048 1.5922 -19.1291 -10.6588 -3.3851 -4.2057 -3.2921 -14.7245 -1.2769 -4.0233 -10.6060 -8.5010 -7.8677 5.9874 -14.3916 -8.8255 -14.1266 -3.1344 1.5670 -5.9862 -12.0156 -0.8936 6.0262 -6.5630 -5.6614 -1.9242 -2.7227 7.3013 3.2377 -11.9032
-8.9478 0.8516 -18.2491 -15.8130 -4.3169 -4.6585 -3.6323 -16.5828 -1.0365 0.1528 -11.4834 -8.3331 -6.6476 16.0335 -14.3096 -9.0193 -11.5349 -2.2049 0.0545 -4.2683 -9.1553 -0.5848 3.2626 -3.3933 -3.3881 0.7814 0.0845 10.7608 4.5822 -13.0398
-9.3779 -0.5229 -16.8452 -19.8641 -4.6182 -4.3648 -4.6146 -16.8847 -0.6040 -2.2529 -8.1438 -7.3542 -5.5051 3.3700 -9.6655 -8.4006 -7.1758 -2.2427 -3.4698 -3.0172 -4.3167 -0.1870 -2.1334 -1.4873 -3.2688 4.0668 1.7003 2.0929 -0.8685 -10.1494
-8.2557 -1.4717 -15.6130 -16.5680 -3.9081 -3.6001 -4.7405 -13.3270 -0.4062 -6.8805 -3.9861 -6.1560 -4.8617 -15.0248 -3.0320 -6.3920 -4.3321 -2.8204 -2.8596 -2.0064 -2.4661 -0.0261 -0.8303 -0.8773 -3.8533 1.7307 0.6148 -4.6532 -4.3493 -5.4142
-7.2693 -1.1397 -15.8847 -10.6056 -3.1411 -3.4332 -4.2907 -9.7087 -0.4588 -7.2008 -4.3605 -5.7432 -4.7278 -15.5557 -1.7493 -5.8948 -5.2439 -3.6472 1.6110 -1.7804 -5.9276 -0.0501 5.9170 -1.2168 -5.0976 -6.1635 -2.9740 -1.4820 -1.4961 -1.3516
-7.3805 1.0361 -16.5515 -10.8600 -3.1633 -3.8835 -3.7431 -9.2612 -0.6892 -11.6636 -6.9077 -6.2985 -5.4086 -22.4883 -6.0433 -8.1099 -7.5567 -4.8109 3.0230 -2.6552 -10.4975 -0.2142 7.3811 -2.3031 -6.9579 -11.7848 -6.4296 5.0199 2.3521 -0.5791
-7.6966 2.7229 -15.8454 -16.7755 -3.4779 -3.9527 -2.9659 -11.3579 -1.2216 -17.7107 -6.0963 -6.4392 -6.3471 -39.1657 -7.1408 -8.8800 -8.6249 -6.0775 -0.7399 -3.0425 -11.6140 -0.6854 -0.6238 -3.2200 -7.0564 -11.0757 -8.2759 2.8374 0.7162 -3.6971
-7.7881 0.8397 -15.2129 -20.2379 -3.5708 -3.5669 -2.4987 -14.3980 -1.7303 -8.3432 -3.0044 -5.3082 -6.1909 -23.1719 -1.1534 -5.9870 -8.1251 -5.7228 -3.8233 -1.4466 -8.3189 -1.2036 -7.8069 -2.0624 -3.3401 -6.2078 -7.5493 -6.7704 -2.3890 -6.1766
-7.9025 -3.1835 -15.6343 -18.1969 -3.7511 -3.7305 -2.3072 -16.3031 -1.6372 12.1676 -1.0110 -4.2641 -4.8517 22.3708 7.3792 -3.4717 -6.0471 -2.6044 -2.2179 1.0314 -2.5143 -1.2150 -3.7659 1.2316 1.9375 0.0388 -2.8130 -7.9845 2.3594 -7.1239
-7.4198 -5.0607 -14.1419 -13.5923 -4.0475 -4.4430 -1.1270 -14.1245 -1.2314 20.8652 0.2070 -4.2511 -3.1968 42.8753 13.4954 -3.9059 -2.8996 1.4365 1.9277 2.5715 1.6420 -0.8432 6.7942 3.8432 4.3044 5.5216 3.7517 5.6350 12.8517 -8.3823
-6.4348 -4.1436 -10.4908 -9.5442 -4.1287 -4.8077 0.4617 -9.4418 -1.1727 15.3375 0.4775 -4.2456 -1.8676 30.3797 14.9949 -4.9351 -0.9812 3.9918 5.2258 2.7176 2.0519 -0.6722 10.7249 4.1821 2.7359 7.8814 6.3510 18.5557 16.7768 -5.5547
-6.4501 -3.3766 -8.9789 -8.7390 -4.0927 -4.8353 0.3268 -8.0061 -1.2478 9.6781 -0.6796 -3.9726 -1.3280 17.9613 12.8309 -5.0466 -1.4117 5.0787 6.0691 1.7766 2.5508 -0.7550 4.5454 3.7564 0.1828 6.4406 3.6731 14.6201 10.5338 0.9622
-6.7975 -3.1619 -9.5693 -10.6582 -3.8422 -4.7055 -0.6010 -9.1306 -1.0417 3.0163 0.0732 -4.2484 -1.0911 1.8026 10.6718 -4.5265 -1.4726 5.4693 4.4828 0.5842 6.0195 -0.7369 -1.7706 3.5344 -0.8616 3.8209 1.0303 0.2077 3.3736 3.2083
-5.3946 -1.4539 -8.2481 -11.5427 -3.0702 -4.0909 0.6508 -7.6261 -0.8640 -7.5086 3.6104 -4.4779 -0.2840 -25.1334 10.3175 -2.6665 1.1212 5.0387 2.5829 0.2643 8.5377 -0.5668 0.4991 2.8156 -0.0525 3.7553 2.1477 -4.9196 2.9727 3.0228
-3.4779 0.6619 -5.9879 -10.9534 -2.3334 -3.7458 3.7692 -5.5880 -0.9683 -7.2135 4.7840 -3.6892 0.1454 -24.8644 10.6146 0.3115 3.8705 4.0219 3.2770 0.6155 7.3014 -0.5048 6.9830 1.7425 1.9099 6.6444 5.0984 4.7610 6.7837 4.8554
-3.0411 0.8915 -6.5319 -9.6451 -2.1280 -4.5935 6.0282 -6.7085 -1.0232 6.1181 2.6123 -2.6962 -0.9515 8.0078 11.3683 2.0484 3.7221 2.7371 5.5877 0.0758 5.6443 -0.6238 6.5213 0.6571 3.1051 9.0414 6.5633 13.1084 6.7641 2.1469
-2.8600 0.6439 -8.6380 -6.4759 -1.9364 -5.4422 6.4395 -7.5840 -0.8198 10.6226 1.9983 -2.6441 -2.3858 18.5329 12.1249 1.2001 1.9579 0.7014 4.6926 -1.8390 5.5256 -0.6238 -3.0303 -1.1563 1.7953 8.9647 5.2489 6.0569 -0.2525 -4.9464
-2.3445 1.2096 -9.3938 -4.0788 -1.6472 -5.0121 5.2750 -6.6886 -0.6013 1.5853 2.9082 -3.5623 -2.9818 -3.3447 10.1597 -0.9061 0.7921 -1.6038 0.1032 -3.6937 4.6876 -0.3322 -10.1424 -3.1102 -0.6674 7.7211 2.1127 -7.7663 -7.1089 -5.7047
-2.9132 0.6555 -10.6153 -5.0121 -1.6719 -4.1095 2.6726 -7.5299 -0.5592 -2.1918 1.7633 -5.1543 -3.2210 -10.1427 6.1779 -2.3279 -0.5813 -2.4870 -2.7260 -4.4307 2.0173 -0.0369 -5.4413 -3.4864 -1.7660 5.2448 -0.6797 -10.2261 -5.4525 -2.7629
-3.8991 -1.2827 -14.1795 -5.7556 -1.5978 -3.4035 -0.2569 -9.5196 -0.4611 3.6420 0.2681 -6.7830 -3.1762 4.5340 5.9047 -2.9923 -3.3309 -1.8645 -1.8332 -4.6588 -1.5728 0.0965 3.3189 -3.1066 -1.9919 0.3916 -2.2270 0.0854 1.2575 -6.4523
-3.8433 -2.6133 -16.2863 -4.8093 -1.0613 -2.3790 -1.8824 -9.7053 -0.0972 8.3569 1.5074 -7.1663 -2.7143 10.0361 11.3187 -3.9373 -6.1836 -1.1093 -0.7532 -4.6519 -4.4206 0.2317 2.8794 -3.6603 -3.0038 -3.6950 -3.6282 7.2101 2.4443 -11.8253
-3.5656 -3.6912 -13.7917 -4.1536 -0.6928 -1.2969 -1.9562 -9.0237 0.0711 10.8049 4.0773 -5.8267 -2.6432 8.8879 17.1878 -4.1329 -7.3730 -0.0365 -0.9931 -3.1923 -3.8740 0.1964 -4.9776 -3.3620 -3.2248 -2.8476 -5.3607 1.2228 -3.5634 -10.0926
-3.7786 -5.3331 -9.7073 -3.2397 -0.9139 -0.9586 -1.2637 -8.6074 -0.4354 13.5716 5.6619 -3.7181 -2.9186 16.2095 18.2146 -1.3802 -6.9337 2.2862 -0.7989 0.1006 -0.6093 -0.2599 -7.4674 -0.0938 0.1875 -0.2590 -6.4146 -9.0297 -7.1285 -5.0035
-3.6930 -5.2433 -6.6259 -3.4313 -1.3688 -0.9569 -0.1700 -7.1742 -1.0172 10.4851 5.8873 -1.6506 -2.4647 15.3868 14.2924 3.1890 -5.6597 4.7692 1.0817 3.5465 0.4774 -0.6695 0.1619 4.1682 6.2970 -1.2686 -5.8305 -8.7342 -0.8770 -1.2678
-2.5123 -1.4845 -3.2396 -6.4879 -1.3289 -0.2965 1.5999 -4.0718 -0.9283 -2.1784 5.5706 0.4265 -1.2420 -10.3804 8.9284 6.2081 -3.4705 5.9242 3.9786 5.8573 -0.9353 -0.6351 9.8135 6.7804 11.1030 -2.0745 -3.1555 4.1678 10.3072 1.9509
0.0773 3.8593 -0.3714 -6.9600 -0.1837 0.8933 4.0444 -0.3660 -0.7153 -15.1560 6.1358 2.4696 0.2954 -40.0642 5.8366 7.1090 -0.5947 6.5837 5.3108 7.2196 -0.2145 -0.6631 10.8309 7.7619 12.3101 2.1623 0.3133 15.5559 14.8793 3.8740
2.7565 6.5965 -0.2648 -1.8693 1.2015 1.2857 5.8449 2.1182 -1.0682 -16.8835 7.2471 3.8215 2.3166 -42.8408 6.0869 7.4687 1.5460 8.2646 3.4143 7.3477 2.5669 -0.9852 2.3529 7.6759 10.8988 5.7089 1.7716 11.9199 8.6731 4.6815
3.0623 4.5240 -0.0102 2.0156 0.9626 0.1274 5.5297 2.6990 -1.3756 -8.7727 6.6218 3.7538 4.4461 -20.9924 6.8547 7.5973 2.4555 10.2971 0.0513 5.7833 3.9959 -0.9820 -3.3385 6.8554 9.0410 4.1765 1.6444 0.8174 1.0647 6.1509
1.1688 0.0592 3.3145 1.0508 -0.8531 -1.5284 3.9566 2.6759 -1.0427 -0.9640 4.0438 2.4720 5.5995 1.8992 4.6885 7.3596 2.8415 10.5880 -2.0232 4.0981 3.9599 -0.6247 3.3906 6.4323 8.5600 3.1639 3.3454 2.2669 3.2554 5.5752
-0.5330 -2.2312 5.2578 -0.8456 -2.4722 -2.3751 3.1734 2.6447 -0.7303 2.0600 1.6454 1.3101 5.5284 14.3747 0.5280 7.6485 2.7321 8.7479 -1.4024 4.1135 2.8844 -0.6458 13.1987 6.9113 10.0966 5.2178 6.6887 16.8282 11.5841 2.0069
-1.0652 -1.4337 3.4023 -1.4841 -3.1210 -2.5203 3.4233 2.5447 -1.0119 0.6683 0.9690 1.2579 5.0450 12.7239 -1.3374 8.5944 2.6894 6.6516 0.6827 4.7118 1.0124 -0.9997 11.2338 7.2788 11.7604 6.5028 8.3969 23.4382 12.8348 1.1998
-0.4945 -0.3324 4.0973 -1.0530 -2.9702 -2.3804 3.8718 3.9518 -1.2979 -4.9532 2.3730 1.6857 5.1177 -5.1993 0.9733 8.4630 4.6144 5.8703 0.4330 4.0946 1.9914 -0.9576 1.0054 7.2907 11.1338 7.3612 8.7682 13.3264 5.6908 6.5504
0.4015 -0.3724 8.7646 -0.5610 -2.4736 -2.0623 4.1986 6.3458 -0.9200 -10.2659 4.4996 1.3271 6.0495 -24.0839 5.0376 6.3823 8.3881 6.5943 -1.5543 3.2203 7.0887 -0.4799 -1.5285 8.2399 9.5262 10.7437 11.0129 3.4496 2.4621 14.7930
-0.7435 -1.3689 9.6848 -3.7754 -3.0775 -2.5326 3.8713 5.6254 -0.2203 -9.8621 4.9222 0.1147 6.7415 -25.3258 7.6597 4.0909 11.0710 8.6373 0.3494 3.4108 10.5578 -0.1229 7.3720 9.9579 9.6783 14.8361 14.8537 10.3220 9.4006 18.6636
-4.1815 -3.6403 5.9715 -10.4348 -5.4107 -4.5084 2.7376 1.5821 -0.0721 -5.7481 3.6901 -0.9875 6.0964 -13.8945 8.5790 2.8379 11.1099 11.2833 4.1372 3.5888 9.7574 -0.1269 15.3860 10.3481 10.5058 16.5157 17.2767 26.8668 18.4643 12.8527
-6.4121 -5.9151 3.8158 -12.8726 -7.4502 -6.6329 1.8649 -0.8491 -0.6805 -2.8673 2.4775 -1.7785 5.5241 -4.4633 8.9050 1.3284 10.1081 13.2213 2.2757 2.5616 10.2327 -0.3738 12.6809 9.2790 9.3952 16.1137 18.3582 33.1245 19.4336 4.8616
-6.3446 -6.0294 2.5771 -8.4321 -7.7090 -7.6704 1.3093 -0.3891 -1.2287 -2.7053 0.4223 -3.1424 6.5563 0.1001 7.0460 -1.5298 9.4431 14.1586 -2.5108 0.5354 13.8326 -0.6790 3.4488 8.5906 6.3912 14.4978 19.2475 22.0181 11.5864 6.9551
-6.9495 -5.4339 -0.7324 -4.7257 -7.4943 -8.4165 -0.0898 -0.8491 -1.0279 -4.5493 -3.2372 -5.4092 7.0641 1.9852 1.8314 -4.5545 8.0737 14.7764 -3.0816 -2.1739 14.6243 -0.8166 -0.6649 8.0360 2.8467 11.3909 17.8141 7.1459 3.2601 13.5637
-8.4718 -6.0813 -2.8719 -6.4947 -7.5630 -9.0347 -1.6628 -3.0910 -0.5129 -7.7433 -5.4762 -7.4166 5.1761 -2.2111 -2.6092 -5.8760 5.3304 14.7345 -1.7033 -4.6263 10.9562 -0.6538 5.2677 6.2345 -0.1678 7.9040 13.6122 5.4560 3.1175 11.1774
-7.7041 -5.6001 -2.3560 -8.2950 -6.6400 -8.1342 -1.7779 -3.6603 -0.4362 -10.8247 -4.5910 -7.7231 3.5284 -11.8298 -2.8446 -5.5232 2.9314 13.2895 -2.6338 -5.2244 7.6213 -0.4084 12.2971 3.9115 -2.0048 5.6828 10.8258 15.2831 9.3829 3.8789
-4.4298 -2.4459 -2.5504 -4.9182 -4.5513 -5.9506 -0.8704 -1.7854 -0.8477 -11.1235 -3.2660 -6.4181 4.1976 -14.8076 -2.3148 -5.4327 2.3365 11.6303 -5.1426 -4.3998 6.0008 -0.5486 8.3746 2.0202 -3.1731 4.8763 10.8190 18.2435 10.3638 1.0165
-1.6950 0.4953 -3.5229 -0.5890 -2.8001 -4.3865 -0.0839 -0.8609 -1.3610 -9.2253 -2.6391 -4.8624 5.0728 -8.5986 -4.3114 -6.1172 3.2916 11.6878 -9.3742 -4.1191 5.0989 -1.1143 -3.7844 0.1880 -3.7993 5.2537 9.9536 5.7123 0.9777 -1.8454
-0.5666 1.6836 -2.7059 -1.4946 -1.7195 -3.5881 0.9552 -2.1373 -1.5198 -7.7635 -0.9200 -3.6573 4.8486 -5.6188 -4.7803 -5.7306 5.0884 13.0732 -13.0861 -4.2737 6.2719 -1.4392 -8.8472 -1.0997 -2.3575 6.0376 7.5274 -7.2355 -8.0568 -7.2534
0.6660 3.0630 -0.6650 -4.2130 -0.1503 -2.0864 2.8758 -2.2944 -1.0168 -4.7426 1.4939 -2.3107 5.0484 -6.1683 0.6381 -3.7795 6.2344 13.8327 -8.6156 -3.3609 7.8464 -1.1576 -1.3275 -1.0412 0.8443 6.1055 7.1118 -2.6898 -5.6323 -7.9381
2.6295 5.1642 0.3350 -1.9824 1.8880 -0.0607 4.7969 0.2777 -0.3115 0.2018 2.4814 -0.8800 5.7732 -2.0516 6.8910 -1.6901 5.3662 13.5458 2.7413 -1.6230 6.3126 -0.7842 6.1605 -0.6409 2.2595 6.0416 8.6022 13.3403 2.3386 -4.9278
3.2990 5.9643 -1.2487 1.4189 2.6993 0.7798 4.8390 1.3167 -0.2236 1.8219 1.7394 -0.0249 5.4413 2.8488 6.1675 0.5350 3.6907 13.1466 8.4740 -0.0261 4.2173 -0.6430 2.1851 -0.8248 0.4685 5.5191 7.3988 17.6281 2.3239 -5.5153
1.5564 4.8181 -5.5073 -1.0271 1.7384 0.3601 2.3653 -1.9592 -0.5317 -0.1494 0.3224 0.3808 4.4311 3.4069 0.8982 2.9762 2.8322 12.5815 4.9747 1.5444 4.4470 -0.4066 -7.5969 -0.7540 -1.3820 2.1324 2.8465 2.4206 -5.7650 -6.4064
-0.5030 3.3444 -8.8145 -4.7547 0.3993 0.0295 -0.4692 -4.6133 -0.3073 -2.4122 -0.6470 0.8208 4.0166 0.0185 -1.6680 3.2156 2.0406 11.4179 0.8735 2.9287 3.8014 -0.0549 -9.6796 0.0145 -0.9568 -2.4957 -0.5239 -12.2011 -10.2012 -2.6737
-1.1359 2.1568 -6.3847 -2.8663 -0.5469 -0.1551 -0.8787 -2.3098 0.3372 -5.2196 -0.4911 1.1171 3.4128 -5.5986 -1.6455 0.7621 0.7584 10.5680 0.6494 3.6698 0.9790 0.0514 -1.3734 0.5800 0.4141 -4.3645 -1.3071 -6.9747 -5.9446 -1.2672
-1.1205 0.5349 0.3366 0.3729 -1.3675 -0.6685 0.7973 1.5778 0.4617 -7.0180 0.7605 1.3527 2.0714 -8.5742 -1.0154 -0.5765 0.4011 10.6232 1.3359 4.3983 -1.0214 0.0122 5.8444 0.6580 1.5288 -5.5521 -2.6028 7.7641 -0.0891 -7.8627
-0.9819 -1.1865 5.1221 0.2157 -1.8515 -0.9490 1.8607 3.3732 0.0905 -4.7296 2.5754 2.0313 1.8447 -6.4445 2.3993 0.7247 1.8704 10.5811 0.2204 5.3199 -1.7880 0.1747 2.3270 1.0087 2.7092 -8.6933 -4.5605 9.1562 -0.4232 -14.2862
-0.5810 -2.7344 6.1061 0.6690 -1.9873 -1.0041 1.2714 3.8466 0.0659 1.8286 3.2749 2.5163 3.6297 4.9948 6.6087 1.7919 4.4453 10.5513 -1.9577 5.4600 -1.2724 0.3557 -6.4216 1.8862 3.5212 -9.0157 -4.0739 -3.7103 -5.2566 -12.9711
-0.7282 -4.2064 5.7420 1.9751 -2.0766 -1.4679 0.4313 2.9718 0.3834 10.1993 1.8906 1.9952 5.4114 26.6715 6.8296 1.6901 6.7437 11.8777 -1.0303 4.9389 2.0378 0.1476 -7.8097 2.7277 3.3994 -4.3358 -1.5858 -12.6273 -6.6326 -10.3701
-1.0906 -3.5295 4.8530 -1.3661 -1.3625 -1.5618 0.8369 0.8111 0.3051 12.7315 1.2403 1.4687 5.5881 33.0233 6.2591 1.7336 7.4881 13.0353 4.2608 4.5169 4.5872 -0.3001 0.1856 3.0146 2.7973 -0.7366 0.1483 -6.8951 -1.6976 -12.1862
0.4017 0.1101 4.7168 -4.4478 0.4139 -0.4596 2.3155 1.7195 -0.2436 5.4202 3.0485 1.9021 5.3336 9.0988 8.6750 0.8650 7.3072 11.3118 7.0803 3.6376 2.6231 -0.5659 6.5905 2.8343 1.9241 -0.6598 1.8499 6.4240 4.0953 -11.0782
3.0751 2.8009 7.8170 0.3371 1.6000 0.7147 3.1691 6.5893 -0.6662 -1.0531 3.2654 2.3413 6.1153 -8.3643 8.3472 -1.4573 8.2992 8.7173 3.6977 2.3109 1.1428 -0.6683 3.2799 3.3660 1.3097 -0.5288 4.7194 11.9810 5.6082 -2.8848
3.2950 2.2001 11.5488 3.4962 1.2518 0.7850 2.2898 7.9555 -0.6411 -0.0229 0.0515 1.7547 6.7805 0.7439 2.0692 -2.4296 10.0751 9.0147 0.2464 1.8671 4.5006 -0.7641 -3.6729 5.9252 2.4475 0.8869 6.9494 4.6161 4.0898 4.1152
0.6987 0.6894 11.7334 -3.1876 0.1796 0.1368 0.7990 3.8528 -0.4037 -2.6667 -1.3977 0.4512 5.6323 -2.1165 -2.4083 -1.3926 10.4788 11.0332 0.0975 2.0709 8.1933 -0.7308 -3.0428 9.4255 5.2066 3.7167 8.4406 -1.3640 4.8586 5.6722
-1.1615 -0.5894 11.1887 -7.7386 -0.9910 -0.5018 0.3630 2.7452 -0.4215 -12.1684 1.2070 -0.6283 3.9352 -28.4336 0.4585 -0.9358 10.0313 12.0446 0.7128 1.7293 8.9030 -0.6442 5.5843 11.3423 7.4856 7.8147 10.9731 8.0352 11.3131 6.6996
-1.3687 -2.5255 13.1659 -4.9382 -1.9087 -0.9567 0.5986 5.5498 -0.7963 -13.5549 2.7197 -0.7711 3.6346 -34.5551 5.1477 -1.1478 10.3356 12.9241 1.5744 1.3376 9.2371 -0.7861 11.6687 11.5641 8.2869 9.0119 12.7440 22.7256 18.1376 7.1223
-2.2725 -3.6914 13.5157 -6.8262 -2.2614 -1.4096 0.0426 3.6708 -0.9840 -5.6347 0.1189 -0.2934 3.4220 -13.0147 3.2372 -0.7493 10.2460 14.0842 0.9139 1.3961 9.1378 -0.9371 8.4281 11.2160 8.3549 4.7315 10.7537 22.3296 15.6534 1.3470
-3.7825 -2.6795 9.2666 -12.4183 -2.5087 -2.0145 -1.0549 -1.8847 -0.5843 -4.6948 -2.8177 -0.2531 1.3282 -4.2552 -4.7191 -1.0811 8.2519 13.1313 -3.1913 1.0129 6.0930 -0.6778 1.0539 9.4280 8.1331 -0.7469 6.3462 7.0538 6.2593 -9.0517
-3.7805 -2.1201 5.1657 -10.0310 -2.7868 -2.5019 -1.3455 -3.0749 -0.0976 -8.4686 -2.3067 -0.8715 -1.0665 -10.3905 -7.3618 -2.6182 5.9594 10.3236 -5.1436 0.0005 2.8972 -0.2586 -1.0649 6.0231 6.7057 -2.0253 3.8358 -3.1056 2.9383 -15.3197
-2.6411 -4.1297 5.2537 -4.1793 -2.4617 -2.6526 -0.7315 -0.8012 -0.1929 -1.5302 0.2597 -1.3930 -0.9611 -0.7315 1.1939 -3.0970 5.8464 8.8428 -1.8603 -0.9259 3.2144 -0.2350 3.1165 3.4024 3.3622 1.0936 5.0573 2.7428 7.0557 -13.5307
-1.7909 -5.5347 6.9166 -3.3154 -1.7846 -2.7372 0.1755 0.6365 -0.6195 8.1507 1.5145 -1.3280 1.4963 14.9296 9.2993 -1.8797 7.6168 9.0859 -0.3669 -1.3836 4.6443 -0.5097 5.1871 2.5502 -0.0550 3.9594 6.5926 12.2290 7.0629 -9.5290
-0.8216 -3.4472 6.8800 -2.4475 -1.4618 -2.6564 1.2372 2.3015 -0.6865 4.3793 1.3653 -0.5207 4.2646 9.4335 6.7676 -0.2811 9.1092 9.7819 -3.0611 -0.5275 5.1872 -0.5612 0.4677 2.4629 -0.5520 3.8003 5.1792 9.8541 0.2410 -9.2598
0.2149 -0.3936 5.5780 0.6353 -1.3948 -2.1680 2.0258 3.8483 -0.4624 -5.3344 1.4979 0.8929 6.1005 -5.0500 0.4276 1.3487 9.2136 11.8128 -3.2936 2.1803 7.0332 -0.3769 -4.0112 3.2527 1.7754 3.0244 3.2789 -0.5285 -4.4608 -9.4810
-0.7412 0.4313 3.2647 -0.9841 -1.8615 -2.3095 1.5150 2.0263 -0.4666 -9.2227 0.6235 1.5489 6.3722 -8.3679 -3.6007 2.6033 8.0489 15.0914 1.1344 4.6080 9.0572 -0.3258 -0.7174 4.6243 3.1227 1.7516 2.9178 -5.3683 -2.7374 -6.0091
-4.3110 -1.3048 -0.9863 -7.0553 -3.4393 -3.9957 -0.8979 -1.9286 -0.6153 -10.8641 -2.3938 0.1923 4.9758 -7.5984 -7.6882 2.3451 6.0738 16.8211 6.1378 4.2272 7.2234 -0.4005 6.2776 4.6105 0.2811 -3.1997 1.2977 -2.1969 0.8760 -4.4520
-7.6216 -4.7456 -5.3552 -10.2324 -4.9233 -5.7398 -4.3303 -4.2785 -0.5483 -11.1865 -4.2883 -1.7573 3.2068 -7.8133 -8.4816 0.7913 4.1682 15.9287 8.3499 2.1142 3.0333 -0.3570 7.0310 2.8281 -5.4584 -9.7735 -2.5145 -0.2509 0.3187 -11.4911
-8.0836 -7.3590 -7.1764 -9.5017 -4.5834 -5.7240 -6.6528 -5.6040 -0.3370 -5.9791 -3.7177 -2.3271 1.9457 -1.1741 -4.2480 -0.7621 2.2244 13.4851 6.1762 0.7841 0.7362 -0.1763 -0.9733 0.4217 -10.0846 -14.3374 -7.0171 -8.3633 -6.5621 -22.3860
-6.6769 -6.3767 -7.2162 -8.3765 -3.0004 -4.4736 -6.8914 -7.6250 -0.1719 -3.1250 -4.1545 -2.2851 -0.1092 3.3739 -5.2826 -1.7859 -1.5840 9.5976 1.2252 0.1753 -1.0167 0.0351 -9.2707 -2.4399 -12.0912 -18.4176 -12.5300 -23.3854 -14.5768 -27.8875
-5.2950 -3.4080 -7.3278 -6.6947 -1.6376 -3.1224 -6.4510 -7.9838 -0.0844 -11.3227 -5.1696 -2.6245 -3.4502 -12.9016 -12.3852 -2.5659 -7.1388 4.9237 -1.4802 -0.8430 -5.6455 0.1815 -8.7943 -5.0726 -13.0653 -22.3269 -17.3950 -29.7841 -15.6546 -27.6471
-4.0323 -2.2073 -7.3125 -3.8918 -0.4937 -1.7220 -6.5769 -5.2724 -0.0515 -19.1793 -3.1790 -2.3951 -5.5700 -35.7906 -11.2894 -3.8594 -10.9533 1.6098 -0.4868 -2.1126 -11.4298 0.2442 -2.6815 -6.2251 -14.1800 -23.9381 -18.6614 -20.3087 -10.7758 -26.6844
-2.9721 -2.8542 -5.9845 -2.8928 0.6385 -0.5399 -6.8437 -3.5154 0.0525 -11.5422 -1.7967 -1.8021 -4.9768 -27.9244 -3.2134 -6.1672 -11.1133 0.2663 -0.1637 -3.4169 -14.6100 0.3332 -2.0805 -6.6898 -15.4378 -24.4421 -18.3621 -10.0270 -9.4544 -25.3001
-2.8289 -2.9903 -3.2848 -4.2210 1.2744 -0.1172 -7.0153 -5.2762 0.2656 3.0751 -6.2796 -2.3833 -3.9385 7.5284 -5.3382 -8.4358 -9.4671 0.0101 -2.7056 -4.9993 -14.2925 0.4423 -8.7866 -7.2949 -16.4102 -23.7210 -18.6507 -13.9950 -14.9754 -22.5476
-2.7949 -1.8730 -0.9059 -3.5138 1.5589 0.0852 -7.3140 -6.6822 0.4085 4.8323 -11.6143 -3.5929 -4.5427 22.7712 -16.9114 -9.3925 -7.9422 0.5624 -4.8443 -6.5880 -11.6565 0.4606 -12.7570 -7.0757 -16.0110 -18.8797 -17.0691 -23.6186 -19.1656 -20.2492
-1.7861 -0.5482 0.1580 0.0983 1.8669 0.7088 -7.0087 -4.8655 0.4551 -4.8514 -11.1758 -4.0350 -6.0068 3.6101 -20.9398 -9.7209 -6.9626 1.7063 -4.2411 -7.8350 -9.2399 0.5046 -8.0569 -6.2156 -13.5006 -13.0013 -13.3068 -21.5648 -14.1809 -16.8295
-1.1866 -0.5435 1.2110 1.6322 1.5020 0.9359 -5.6940 -3.1918 0.5358 -6.2902 -9.0548 -4.1388 -6.9862 -5.3778 -15.1445 -10.2914 -6.3055 3.0737 -2.9875 -8.7436 -8.4842 0.6588 -0.7132 -5.6065 -9.4683 -10.7781 -9.7490 -7.0681 -3.6990 -9.9274
-2.0994 -1.8117 2.9849 -0.2817 0.1235 -0.1390 -4.3112 -4.0855 0.6209 4.8156 -11.0391 -4.2633 -6.5404 20.0317 -12.0223 -10.1251 -4.8633 4.7777 -3.6965 -9.0336 -7.1359 0.6961 0.4006 -4.4140 -5.2125 -9.0537 -5.7627 5.0754 1.3706 -6.1878
-2.6961 -1.5979 4.4566 -2.2205 -1.0424 -1.6668 -3.1279 -4.7480 0.7204 10.3172 -13.9719 -3.5843 -4.1694 40.7086 -16.3338 -8.5513 -2.3947 6.5315 -5.8538 -8.1188 -4.3446 0.6428 -5.4171 -2.5076 -2.1297 -5.6760 -1.3992 3.3643 -2.5058 -11.4475
-2.3521 0.6066 5.0314 -3.8818 -1.5489 -2.4601 -2.0052 -3.7218 0.9551 0.0211 -13.2362 -2.6140 -1.8337 22.8238 -21.5273 -6.5673 -0.7732 7.6526 -7.0529 -5.9481 -2.3192 0.8965 -9.0216 -1.0680 -1.0494 -4.6549 0.6602 -5.7082 -5.8024 -15.1458
-3.4563 0.0527 4.7781 -6.2284 -2.8114 -2.9953 -2.4489 -3.0057 1.2315 -12.6432 -10.5981 -2.9164 -1.7822 -6.9498 -21.6477 -4.7173 -0.3763 8.5375 -5.5433 -3.5484 -0.5926 1.3890 -2.4472 0.4141 -1.5928 -5.0715 1.6509 -5.0353 0.7243 -6.9558
-6.2226 -5.1400 3.9604 -7.0641 -5.0252 -4.0231 -5.0453 -2.7591 1.4406 -11.9354 -9.4118 -3.9434 -1.8249 -7.7279 -16.8082 -3.0891 0.5187 10.0322 -1.2712 -2.1042 1.4150 1.6329 8.2403 2.6545 -2.5731 -2.8388 4.4281 7.5527 11.3958 2.3161
-7.6513 -9.5267 3.3814 -5.5432 -6.2109 -4.8134 -6.9511 -1.8672 1.6723 -0.0079 -9.2748 -4.0761 0.8008 17.2793 -9.9447 -2.9440 1.2197 11.3248 2.6924 -1.4825 1.4326 1.6205 9.8498 4.3025 -2.8639 -1.4421 6.6474 15.0081 13.5137 0.9932
-6.5926 -9.0499 3.2274 -3.5182 -5.4533 -4.6720 -5.9247 -1.0667 1.7313 8.1287 -7.9587 -3.7147 3.6898 31.9001 -4.0163 -4.5379 -0.1672 10.6771 2.2024 -0.8123 1.1031 1.5673 1.8852 4.5010 -2.4581 -4.6911 5.9707 6.9739 6.0987 -4.1676
-4.8902 -5.7699 2.1914 -2.4659 -4.0470 -4.2539 -3.7554 -0.7324 1.2609 2.0205 -5.3053 -3.7150 4.1580 14.2060 -1.8039 -5.5101 -1.5510 8.6896 -0.7089 -0.0402 4.0724 1.2461 -2.6122 4.2786 -2.4774 -8.1494 5.1998 -5.8051 0.1259 -5.2670
-4.4121 -3.2101 -0.7232 -3.9249 -3.4335 -4.1677 -3.1848 -0.5679 0.6689 -10.7667 -3.2199 -3.4298 3.7751 -16.1640 -2.7459 -4.5025 0.4423 8.4396 -0.0382 0.4974 7.5998 0.6923 3.2772 4.5891 -3.1214 -7.7811 6.3061 -5.8905 2.7219 -3.1872
-5.2489 -3.4120 -3.6037 -6.8891 -3.8229 -4.1440 -4.1604 -1.1705 0.7573 -13.7099 -2.4549 -2.6738 3.7809 -23.3634 -2.2807 -3.0785 4.0189 10.8327 2.8955 1.1250 8.0952 0.6018 11.2974 5.2487 -3.2867 -5.6056 7.2650 7.8741 8.9130 -0.6758
-5.5335 -5.0919 -2.7975 -6.8931 -4.0489 -3.7270 -4.3717 -1.8991 1.3246 -5.3962 -2.2290 -1.8179 3.4245 -4.7868 -0.0066 -2.4782 5.0338 12.7497 2.9555 2.3911 8.1763 1.0745 10.4462 5.4835 -2.6406 -3.4695 6.8418 16.4780 9.2126 -2.8696
-3.9028 -4.1185 1.3121 -4.4324 -2.8964 -2.6277 -2.7222 -1.5600 1.4279 0.8738 -2.4868 -0.2777 3.0860 11.1459 -1.2210 -2.0241 4.5136 12.0829 2.0676 4.1094 10.1612 1.2733 1.4529 5.1424 -1.5357 -1.0000 6.1738 7.2978 2.0477 -10.2229
-1.9538 -0.1818 3.2725 -4.2634 -1.1081 -1.1315 -1.0405 -0.9101 0.8945 -2.1138 -3.0047 1.3849 3.2733 6.0810 -5.7983 -1.2579 5.7131 10.5114 3.6649 5.1979 11.1049 0.8578 -3.9794 4.9270 -0.1866 0.1284 5.3280 -6.6068 -4.2217 -11.7868
-1.5997 2.1294 0.4221 -4.7657 -0.3149 -0.3233 -1.0522 -0.3486 0.3522 -8.9195 -2.6607 1.3259 3.1422 -11.4307 -6.5089 -0.9256 6.4689 9.6090 6.3613 4.7870 8.5269 0.3189 1.0781 4.7396 0.0739 -3.1148 2.7796 -8.0113 -2.4897 -3.5839
-2.6592 0.4289 -3.6852 -2.8658 -0.7515 -0.8613 -2.3806 -0.1816 0.0690 -9.3631 -2.2580 -0.0915 2.0971 -16.5190 -1.7140 -1.8708 3.4682 9.2479 8.5461 3.1432 4.1783 -0.0941 7.9266 3.3416 -2.3693 -9.1639 -1.3543 -0.4097 2.6379 1.3620
-4.8290 -3.4543 -6.2306 -3.4125 -1.8145 -1.9708 -4.9436 -3.1767 -0.1557 -0.9411 -3.9008 -1.4966 0.0256 1.3438 1.1523 -4.1894 -1.2149 9.3371 8.0276 0.7595 -0.0473 -0.4238 4.4398 0.3907 -6.7029 -12.5966 -5.2846 0.5925 0.1923 -5.2822
-7.5080 -6.4195 -8.8163 -8.8653 -2.7275 -2.4945 -8.5541 -9.6492 -0.2615 6.0153 -6.8785 -3.0724 -2.9308 18.8875 -2.2635 -7.0265 -5.5679 8.9213 2.5168 -2.1123 -3.8172 -0.4206 -6.7202 -2.7699 -10.4499 -12.9171 -8.6192 -11.7134 -11.0424 -14.9453
-8.4593 -6.2709 -12.2825 -11.7074 -2.4094 -2.2945 -10.5196 -14.2125 -0.0538 3.3789 -8.2146 -4.5671 -5.8109 13.5573 -6.3173 -9.2873 -10.6767 6.8073 -3.7505 -4.4618 -6.0374 -0.0325 -12.0193 -4.6773 -12.1584 -14.3831 -11.3410 -25.9477 -18.8001 -19.2160
-7.0093 -3.8940 -14.3943 -7.6884 -0.9603 -1.8703 -9.1458 -13.5838 0.2103 -2.2663 -7.4480 -5.3313 -7.9939 -0.9666 -5.5060 -10.8714 -14.6298 4.6244 -4.7926 -5.3027 -6.9699 0.2045 -6.2504 -5.0859 -12.0581 -16.3984 -11.5838 -23.7534 -14.1395 -20.4527
-5.4516 -2.0483 -14.0568 -2.4680 0.1371 -1.3378 -7.0653 -11.2164 0.1696 -1.3703 -7.8901 -6.0698 -9.5419 1.0014 -4.0623 -12.1780 -14.1250 4.3848 -2.0837 -5.5041 -8.6539 0.0456 1.0905 -4.8425 -11.2317 -14.5543 -8.9150 -6.2660 -4.5712 -20.6030
-4.7898 -1.5543 -12.0223 -0.3072 0.3397 -0.6582 -6.7888 -10.0418 0.0025 3.3897 -10.4208 -6.5981 -9.9070 14.4586 -6.6649 -12.7805 -11.1958 4.4398 -1.1053 -6.4815 -10.1489 -0.0488 -0.9482 -5.0359 -10.7918 -9.8351 -6.5973 2.9190 -2.9648 -17.7721
-3.7151 -1.6733 -8.2867 0.0315 0.5229 -0.0483 -7.1949 -8.4882 0.1271 1.5246 -9.9458 -5.7442 -9.2441 8.5961 -8.1918 -12.1427 -9.9099 2.7319 -4.0282 -7.6676 -10.1006 0.2099 -10.3637 -5.8829 -11.3289 -8.0385 -7.0165 -8.3073 -9.8310 -16.0100
-2.4312 -2.0678 -4.4648 -1.5327 1.1971 0.3811 -6.8832 -6.4697 0.5257 -7.5403 -4.4006 -4.5993 -9.0686 -21.3057 -3.6010 -11.0043 -10.5669 0.8151 -6.8891 -7.7666 -10.9328 0.5244 -14.2940 -6.4575 -12.3307 -11.4067 -8.4562 -22.1472 -14.3319 -19.6135
-2.2213 -2.3451 -4.4405 -3.8322 1.9044 0.5241 -6.4295 -5.9047 0.7704 -11.2849 -0.2243 -4.8846 -8.8431 -37.6924 2.5754 -10.8399 -11.1015 0.9395 -4.4544 -7.4515 -13.1083 0.5743 -6.4644 -6.0888 -12.7096 -15.7025 -8.5845 -17.8852 -9.4850 -22.8347
-2.3238 -2.5117 -7.6097 -1.2166 2.1271 0.0636 -6.5486 -5.2105 0.5789 -3.9218 -1.9300 -5.9483 -6.2314 -18.3552 4.5251 -11.8441 -10.0888 2.9004 0.2037 -7.8392 -13.3624 0.3328 3.1933 -4.8489 -12.7624 -16.5348 -7.5660 -1.6117 -0.8357 -21.2313
-2.1700 -3.3722 -8.7207 4.0768 1.6909 -0.9001 -7.3468 -3.4298 0.0914 4.9972 -6.0111 -6.5135 -2.0905 11.4197 1.8064 -12.1976 -7.6405 5.5725 0.3062 -7.7847 -10.8490 -0.0510 3.0811 -2.4506 -13.4231 -15.1685 -6.0652 4.9165 1.7706 -18.3464
-3.3504 -4.5294 -6.9853 1.0518 0.4449 -1.7792 -8.6960 -4.2619 -0.2929 6.4153 -8.6631 -6.3127 0.5292 22.3658 -3.9235 -10.6788 -4.5288 8.0684 -2.7832 -6.0501 -6.1850 -0.3050 -2.9153 0.8898 -13.2324 -13.8622 -3.2020 -3.3975 -1.9788 -14.1539
-5.6198 -4.7572 -5.9953 -8.7645 -1.3872 -2.2728 -9.4993 -7.3657 -0.1908 1.7447 -9.2652 -5.4569 1.6115 14.4907 -8.7009 -8.2185 -0.7962 9.5606 -3.9714 -3.8127 0.6892 -0.1552 -2.1825 3.4578 -9.9736 -9.8140 1.9777 -9.3054 -3.0225 -5.9751
-6.1866 -4.6196 -5.1275 -12.1152 -2.7707 -2.4851 -8.0648 -6.9011 0.3870 -1.9406 -7.2600 -4.2541 2.7246 4.6446 -7.0412 -5.1258 2.8302 10.1683 -2.2926 -2.1217 5.7653 0.3503 7.3925 4.3124 -5.0019 -1.6567 7.9130 0.4928 3.1328 1.8611
-4.7315 -5.1244 -1.2822 -7.7682 -2.9595 -2.5903 -4.7173 -2.7357 0.8173 0.2038 -3.9721 -3.1204 3.4089 6.4332 -1.1014 -1.4408 4.2024 10.2634 0.6916 -0.6807 4.5977 0.7108 14.2926 3.9910 -2.0915 3.3460 10.1953 15.5379 8.7575 2.7622
-3.3258 -5.1509 3.5293 -3.9674 -2.3749 -2.5666 -2.2571 0.1856 0.5586 3.7018 -2.9981 -2.4434 3.2498 14.0995 0.0001 -0.0649 3.6379 9.0297 1.6289 -0.3601 1.7736 0.4973 9.6158 2.5466 -2.6995 0.1498 6.4271 15.7973 4.9241 -2.8333
-2.1065 -3.4685 5.1319 -0.8923 -1.5614 -2.0776 -1.9995 1.4453 0.0181 0.2762 -4.0052 -2.3973 2.9622 8.7288 -4.7049 -2.2192 4.2036 6.1910 -1.7211 -1.7913 3.4863 -0.0064 -0.8044 0.3986 -4.5913 -3.9339 1.0872 0.1263 -4.4981 -7.2383
-0.3773 -1.2541 3.8741 3.1780 -0.6252 -1.0226 -2.0898 3.0080 -0.1196 -8.0342 -3.0994 -2.3651 2.0143 -11.0361 -6.6326 -3.4915 5.5986 3.2391 -5.4011 -2.7753 5.5516 -0.2502 -4.4237 -0.9215 -4.7805 -3.1164 0.0893 -11.3148 -8.4240 -5.5289
1.0418 0.1824 2.9293 4.4857 0.2435 0.2572 -1.2042 4.2980 -0.0609 -13.3075 -0.2666 -1.5549 0.0761 -28.5124 -3.3486 -1.6613 4.4738 1.5008 -4.9495 -1.9164 2.7259 -0.2996 1.2634 -1.3667 -2.9270 -2.5106 2.5668 -3.9913 -4.0860 -3.9893
2.0103 1.6421 3.3929 3.7630 1.0469 1.5767 -0.0615 5.0691 -0.3052 -14.4728 1.3046 -0.1163 -1.1259 -35.4994 -0.5721 -0.4748 1.6361 1.2399 -2.4525 -1.0131 -0.5700 -0.4851 6.0734 -2.1728 -0.8007 -3.2196 4.3654 11.8334 1.2238 -8.9165
2.9162 2.7246 4.0246 4.3632 1.8252 2.7503 0.4475 4.9225 -0.5950 -10.8107 1.3700 1.2094 -1.0206 -28.5499 0.6387 -1.0916 0.6013 2.2917 -1.5135 -0.9312 -0.0473 -0.6546 2.1446 -2.8142 0.7309 0.0865 4.6757 15.3897 0.7417 -13.4689
2.3743 0.6757 4.3584 2.0498 1.9482 3.2185 -0.4187 1.5587 -0.5225 0.7078 1.7000 1.7397 -0.9057 -4.4103 3.4618 -0.3833 0.5731 4.0204 -2.1716 -0.2778 1.9689 -0.5367 -5.1095 -1.9285 1.4887 3.9404 4.2622 3.3137 -3.9515 -9.9127
0.2154 -3.2025 4.9445 -4.6572 1.1652 2.7044 -2.0913 -3.1818 -0.2448 10.6664 2.3072 1.3336 -0.8334 16.2621 5.8028 1.3451 -0.8370 5.4148 -2.7809 1.1436 3.9430 -0.2447 -5.4365 -0.2404 0.7678 1.8560 3.3658 -7.0428 -5.3599 -3.1414
-0.5495 -3.4113 5.0842 -6.4962 0.5390 1.8858 -1.8446 -3.1147 0.0305 5.9332 2.8920 0.9214 -0.5718 5.9927 5.5840 1.4262 -1.8392 5.8454 -1.8666 2.2423 5.1051 0.0382 1.3792 0.6064 -0.5126 -1.2596 3.2530 -1.9718 -0.4562 1.2017
1.3807 0.1400 4.4294 -0.5971 1.0262 1.8754 1.0616 1.5442 0.2747 -5.2301 4.5834 1.5089 -1.1029 -20.8839 7.5855 1.3654 -0.4471 5.8604 -0.2537 2.9789 2.8691 0.2713 5.5566 0.8604 -0.0908 0.9581 4.5805 10.7357 4.2986 6.8846
3.2592 1.8919 4.1870 3.3458 2.0525 2.5570 3.4185 3.5581 0.3192 -6.4235 7.1581 2.7020 -2.3574 -28.7067 12.6458 3.5979 0.5822 6.3533 -0.5900 3.7235 -0.4900 0.3147 1.3552 1.5130 1.4571 3.9743 5.0480 13.0352 1.9746 13.5758
2.7216 0.0714 4.1975 1.9172 2.1287 2.3426 3.1980 0.8800 0.0913 -0.4114 8.0580 3.3727 -3.5488 -15.6139 13.6429 5.8028 -1.7931 6.1918 -2.3289 4.2781 -0.0162 0.0005 -5.3424 2.0078 2.0371 2.0160 2.7519 0.9230 -4.4201 11.5942
0.8416 -2.2780 3.7832 1.5433 0.9085 1.0279 2.3674 -1.3764 -0.2308 3.0500 6.7345 3.1628 -5.0211 -2.0594 10.3781 5.3280 -5.5798 3.7571 -2.2843 5.0836 1.9726 -0.5395 -5.1372 2.0203 2.7507 -1.0676 0.4572 -9.1205 -5.5703 2.0994
-0.2551 -3.2121 4.2790 2.8103 -0.1617 0.5903 2.7179 -0.7759 -0.5558 5.3139 5.7992 2.6404 -6.1286 5.5370 10.3116 4.3366 -6.8034 1.1870 0.7537 6.8564 1.2070 -0.9284 2.3343 2.9719 5.2367 0.6465 2.0249 -2.0783 1.1935 -1.2868
-0.3413 -3.4188 6.4896 1.9598 -0.3783 1.3081 3.1020 1.0079 -0.7841 7.0846 6.3606 2.4776 -4.8992 6.6244 13.3465 4.7692 -4.7524 1.5490 4.5077 8.4306 -0.1871 -0.9008 7.1072 5.0989 7.4205 4.5717 5.1984 12.0619 7.5325 1.9870
-0.1344 -3.5431 8.5349 1.9565 -0.7222 1.1178 2.7076 3.4477 -0.6381 3.5642 7.0952 2.5859 -1.9325 -2.9923 14.6530 4.0023 -1.7168 3.3914 4.1923 7.9236 -0.2828 -0.5230 2.7414 6.4166 7.4088 5.5928 4.7386 12.1526 5.9698 1.9069
0.4371 -2.9384 8.0878 4.8425 -1.0256 0.0312 2.7066 5.2197 -0.0716 -1.5515 7.5732 2.2902 -0.2226 -14.7905 15.7711 0.8120 -0.3487 4.4135 -0.1726 5.9023 -1.2174 -0.0306 -2.9663 6.2186 6.9323 5.6841 2.2733 0.1742 1.6642 -0.3916
0.9885 -1.9881 5.6178 4.3624 -0.2382 -0.0273 2.8217 3.2802 0.5772 0.4257 7.6905 1.5664 -0.4866 -12.1734 17.9587 -1.1645 -2.0699 5.7244 -1.0157 4.3183 -2.9661 0.5037 0.6416 5.8653 7.1005 7.6488 3.2755 -2.4826 4.4314 -0.5330
0.4814 -2.0593 3.9213 -1.4864 0.6019 0.5973 1.5709 -0.7803 1.0110 6.4699 5.9562 1.0815 -0.6439 1.7064 16.4649 -0.4483 -5.2484 7.4254 3.2308 3.3998 -3.3836 1.0447 9.8593 5.7392 6.0818 8.0811 6.2184 9.7232 12.2630 -0.2810
-0.3179 -1.8229 4.2177 -4.9119 0.3171 0.4115 0.2401 -1.6412 1.2624 5.6151 2.4657 0.8011 0.2945 4.3820 10.1839 -0.6331 -6.1363 7.5555 4.4213 2.1316 -2.4447 1.3406 12.1850 4.8711 3.0788 5.1780 6.4964 19.7952 13.8920 1.9549
0.1428 0.1128 5.5609 -2.1857 -0.0012 -0.2089 0.5946 1.1706 1.4779 -3.9895 0.4263 -0.0509 1.4771 -13.1624 4.6143 -3.0536 -3.8069 7.4548 0.2099 0.1571 -0.3045 1.2928 5.4524 3.2224 -0.1062 3.1321 5.9399 14.9596 6.4330 5.6962
0.8823 0.9077 7.0158 1.3821 0.0253 -0.7234 0.7971 3.6002 1.4090 -14.4486 0.9490 -1.5888 2.6115 -33.9427 1.2358 -4.4448 -1.0349 9.6603 -3.5112 -2.0744 2.9907 1.0713 0.0075 1.6886 -2.2506 3.7483 6.7872 2.2333 -0.7701 3.4715
0.2453 -0.6851 8.2084 2.0869 -0.6998 -1.5123 -0.8429 4.1859 0.6492 -20.0866 -0.1647 -3.0505 3.6540 -39.1906 -5.2397 -3.9968 0.3017 12.2334 -4.2109 -3.9235 4.0677 0.6226 2.9600 0.3834 -4.0631 3.5568 5.5197 -3.2726 -0.4133 -3.3765
-0.6753 -0.8786 9.6200 1.6355 -1.3822 -1.9910 -2.1681 4.1473 -0.2687 -19.1101 -5.8998 -3.7909 3.6103 -25.4049 -15.6773 -4.6983 0.4551 12.5586 -3.3062 -5.2194 0.8007 -0.0369 9.1210 -1.2396 -5.9404 0.6384 1.5540 2.6691 3.3756 -6.4873
-0.3239 1.4041 11.3465 1.0997 -0.4520 -1.3545 -1.3689 3.1352 -0.2680 -10.7950 -11.9797 -3.5543 2.1939 -0.0216 -22.6368 -6.4969 -0.3367 11.8727 -1.6699 -6.1458 -2.2365 -0.3717 8.9123 -2.9486 -6.8604 -2.6693 -0.1108 9.2690 2.1184 -7.0797
0.2147 2.4494 11.6990 -0.7950 0.8932 -0.4770 -0.2312 0.3331 0.3454 -1.0110 -12.8759 -2.4848 0.4178 20.0581 -22.1228 -6.3050 -1.7494 11.3195 -1.0202 -6.4648 -1.0970 -0.1629 1.0630 -3.9591 -6.3574 -3.8900 1.2963 5.5295 -5.5560 -8.8124
-0.3691 1.1354 9.8718 -2.7064 0.7324 -0.4322 -0.4145 -2.1585 0.3737 0.2248 -9.7046 -1.5768 -1.1964 18.0896 -18.8117 -4.6150 -3.3720 9.7021 -2.4996 -6.1146 1.5041 0.1133 -5.2069 -4.5069 -5.2243 -3.8504 1.8814 -4.7445 -12.4734 -9.8379
-0.6054 0.3555 7.7773 -0.2076 0.0813 -0.6981 -0.4455 -1.4381 0.1559 -5.7465 -6.9595 -1.6253 -2.6229 1.9558 -16.3093 -4.1772 -5.5756 6.8745 -3.6626 -5.9256 1.9323 0.3106 -2.5642 -5.4850 -3.7845 -4.7839 0.8935 -8.2589 -11.8727 -12.1502
1.0610 1.5979 7.0696 5.6031 0.9160 -0.2989 1.2325 1.2552 0.7797 -6.3470 -6.0189 -1.6367 -3.4171 -1.9447 -12.8408 -4.2438 -7.8378 4.4001 -1.9762 -6.1305 -0.5958 0.7034 3.2795 -6.4401 -2.2854 -6.5143 -0.1409 -1.0845 -6.0145 -15.2264
2.7731 3.4160 6.0492 7.0047 2.4547 0.5986 3.0954 1.6716 1.5649 0.9415 -5.3957 -0.5069 -3.5312 9.1455 -7.7558 -2.9550 -8.2679 3.2041 0.9991 -5.4898 -4.4496 1.0441 2.0215 -5.9888 -1.6876 -7.6216 -1.2372 5.4212 -3.7318 -9.0836
2.4216 4.4629 2.5309 2.4934 2.7008 1.0308 3.2368 -0.9807 1.3039 3.2395 -3.6878 0.7832 -3.8237 8.4352 -3.8372 -1.4270 -6.8963 2.8176 0.5640 -3.5442 -5.6145 0.8700 -5.5241 -4.3372 -1.6298 -8.0541 -1.9875 -0.0128 -8.6783 3.7749
1.6294 4.7859 -0.5128 -1.1029 1.9799 0.6331 2.9057 -2.9855 0.4918 -5.1235 -0.6591 1.2551 -4.6794 -13.4508 -2.2066 -0.5104 -6.0978 2.3337 -5.0418 -1.6812 -2.9844 0.3619 -9.0690 -2.9548 -0.6726 -7.2489 -1.2862 -12.0112 -13.2554 6.9478
2.4006 4.5860 1.1970 -1.0203 1.8073 0.2890 3.9458 -1.8695 -0.0928 -12.7278 2.9317 1.9733 -4.8760 -32.5435 0.2723 1.2145 -6.4792 2.1513 -9.2326 -0.1783 -0.6816 -0.0906 -3.1422 -1.5778 1.3830 -3.7739 0.3821 -12.8717 -8.2030 2.1762
3.4854 3.7605 4.9387 0.1077 1.9927 0.9420 5.2535 0.8609 -0.6802 -9.8172 5.6849 3.5251 -3.1185 -29.5343 6.0586 3.5340 -5.6090 3.5745 -6.0287 2.3351 0.2034 -0.4815 6.0988 1.3485 4.3909 1.4550 2.5661 3.1249 3.6551 5.9253
3.2233 2.2680 5.5192 1.3493 1.5239 1.9319 5.0655 2.2976 -1.0719 0.5148 6.2369 4.4280 -0.5882 -9.5065 12.4914 4.3709 -2.3805 5.6496 -1.8020 4.9748 2.9110 -0.7527 7.4959 5.0026 8.0076 5.4931 5.4756 17.1588 9.5229 18.1437
2.0853 0.2723 3.7944 2.4892 0.6287 2.0567 3.8732 1.4893 -0.7202 9.1663 5.5787 4.0911 0.0881 8.0919 16.3742 3.8475 0.3205 6.0011 -3.7364 5.5690 6.5530 -0.6568 -0.6692 6.9243 10.5328 7.0901 7.6797 11.3947 3.8480 25.7145
1.1150 -1.5009 3.2179 2.2877 0.0284 1.7700 2.9370 0.5616 -0.2611 8.8271 6.8416 4.0346 -1.0464 4.6636 18.6274 3.8724 0.6050 5.3342 -5.8243 5.4630 8.0054 -0.3026 -5.1857 7.3738 11.8545 9.0374 8.9518 -1.3040 -2.3486 24.0591
0.7839 -2.3782 4.7329 1.6101 -0.4315 1.9224 2.6591 1.7573 -0.3086 3.3627 9.1634 4.6225 -1.0147 -8.4833 19.4332 4.8002 1.4801 6.1878 -1.8649 6.6641 8.7528 0.0863 3.7401 8.4006 13.9719 14.5552 12.0284 3.6573 3.6023 19.0814
1.3901 -2.5906 8.3572 3.1025 -0.9547 1.8538 3.1662 4.5485 0.0410 4.2540 7.9058 4.4242 1.3055 -0.5295 16.2984 5.3640 4.9930 8.3448 1.9339 7.1557 10.0268 0.6951 15.3466 9.6412 16.1740 20.2185 16.1423 22.1949 15.8798 16.2948
2.8779 -2.0780 12.5438 5.9824 -0.9244 1.1595 4.4509 6.9963 1.2487 9.7120 4.7131 3.8466 4.0375 18.8870 12.1146 5.1638 8.2734 10.2402 -0.2488 5.7985 10.0371 1.4801 14.9505 10.0890 16.4731 21.0370 17.5430 29.5387 19.4499 14.9417
4.0686 -0.9790 13.4054 6.0100 -0.3710 0.7122 5.4890 7.7108 1.9142 8.0736 6.0601 4.5664 6.1690 13.5907 13.8743 5.7010 9.2753 12.0563 -3.5817 5.7173 10.9483 1.8079 7.1594 11.2689 16.2501 20.7383 17.6928 20.1697 14.4038 14.9036
3.2633 -1.7605 10.8389 2.8012 -0.6940 0.4542 4.6374 6.6213 1.1674 1.7211 10.2028 5.2062 7.6730 -6.8000 19.3325 7.4768 9.0188 13.6089 -3.2009 7.3455 14.9433 1.5122 5.9655 13.2880 16.1739 23.0100 19.0932 10.6221 11.8755 18.5054
0.7535 -5.5927 10.1137 0.5479 -2.2193 -0.6871 2.3183 5.2911 0.3573 2.3261 9.8450 3.4515 7.6825 -4.9233 19.7940 7.6955 7.8763 13.2168 -1.4459 6.6688 16.0033 1.2453 12.6626 12.6076 13.3178 22.6617 18.1495 11.6734 14.0097 19.2827
-1.0662 -8.9057 13.1058 0.7509 -3.3724 -2.5195 1.3054 5.3675 0.8291 8.9738 5.9639 0.9476 6.6582 15.0113 16.3490 4.5394 6.6483 11.5070 0.1588 3.3566 10.8312 1.3990 17.2098 8.5412 7.6264 17.7439 12.9909 18.7426 15.1793 8.8658
-1.6250 -9.2737 15.1901 1.0476 -3.7071 -3.8758 1.9008 6.3432 1.7608 10.0168 4.8467 0.0092 6.2680 18.1803 15.7072 0.6770 7.2920 11.5350 2.9301 1.2693 6.6723 1.6678 13.2568 5.3187 3.2832 12.9122 8.1665 20.8907 12.8287 -4.5439
-2.9173 -9.0474 12.8796 -0.7194 -4.4924 -4.4446 0.9446 5.7933 1.6856 1.3193 6.2146 -0.7692 5.8929 -3.5056 15.8699 -1.3955 8.4718 13.3020 3.5694 1.0742 6.9693 1.7119 4.4660 4.9533 1.7204 8.0010 5.7450 11.3157 7.6149 -6.8678
-5.3433 -9.8770 8.3912 -4.4061 -5.8124 -4.8042 -1.9116 2.8256 0.9404 -8.4615 6.0108 -2.5609 4.0076 -25.5659 13.0820 -2.5457 6.9344 13.6523 -0.8033 0.7894 6.5648 1.5922 0.9120 5.2814 0.8072 1.9077 3.7103 -2.1610 2.9878 0.4044
-7.3096 -10.9612 5.7971 -7.1656 -6.7961 -5.4242 -3.4408 0.0651 0.8555 -9.5719 4.0063 -3.4765 1.6073 -25.9407 10.6833 -3.2896 3.6399 12.2015 -3.4399 0.8877 4.2668 1.5419 7.7410 5.2976 0.0439 -0.5222 2.8203 -2.4642 4.5503 6.8293
-8.7232 -12.1171 5.5974 -7.5569 -7.6922 -6.1345 -3.3084 -0.5972 1.2703 -1.9444 1.2442 -2.8348 0.6109 -4.6208 9.7219 -2.8995 2.3100 11.5008 1.2820 2.4599 2.5868 1.4914 15.9241 6.1275 0.6706 0.7135 4.2265 10.8597 10.6925 9.3245
-10.4020 -12.4889 4.7138 -9.7272 -8.6503 -6.4837 -3.7299 -1.5169 0.9241 4.1529 -1.6537 -2.4834 0.8450 14.0099 6.5012 -2.2814 3.6293 12.0512 6.5904 3.9599 0.6118 1.0933 13.2760 7.4715 2.2948 -1.5581 4.8514 16.8117 11.3374 8.8726
-11.4150 -10.4305 2.0409 -15.3732 -8.7979 -6.4790 -4.3156 -3.9831 -0.1028 -2.4856 -2.0540 -2.8097 0.9171 0.1618 1.9942 -2.5977 4.6694 12.3019 5.2462 3.7978 -0.7453 0.4266 2.9606 7.3389 3.0785 -7.0500 2.5020 4.4760 3.1682 2.7381
-10.3697 -7.4766 0.5393 -16.1893 -7.9134 -6.2741 -3.7893 -4.1041 -0.5347 -17.5982 0.2363 -2.4859 0.6508 -35.3413 -0.4172 -2.8816 2.9545 11.5925 1.6922 2.7416 1.3584 0.0437 -1.3396 4.9919 1.7677 -8.8590 -0.7104 -9.9443 -4.3095 -7.0211
-7.7719 -6.4198 2.0250 -7.2248 -6.5434 -5.6377 -3.0128 0.0024 -0.1792 -22.5049 0.1275 -1.7306 0.5642 -43.6711 -2.4615 -2.1120 -0.3260 9.7181 2.3678 1.7100 2.6145 0.0350 3.5231 1.7215 -1.8869 -8.3300 -3.5189 -8.6588 -3.7095 -9.6097
-5.0242 -6.3536 4.4849 2.3038 -4.8006 -4.5242 -2.6272 3.5795 0.0420 -10.6654 -4.1246 -1.5416 0.5184 -10.5134 -6.5506 -1.0012 -1.9390 6.6790 3.5297 0.5381 -2.1174 0.0176 6.6639 -1.1069 -6.4748 -11.5455 -7.2480 1.2320 -0.7495 -3.9847
-2.2149 -4.7481 6.2692 5.0601 -2.4960 -3.0170 -1.8391 3.7144 -0.0989 3.4355 -7.1305 -0.9928 0.9517 24.5111 -9.8676 -0.6825 -0.8618 4.2750 -0.3427 -0.3431 -6.7807 -0.0001 0.6098 -2.7303 -8.7136 -15.0846 -10.7288 0.7567 -3.5215 -2.9908
1.1312 -1.5238 8.2931 6.4198 0.1568 -0.9573 -0.2331 3.7911 -0.2002 8.0022 -5.7127 0.9815 2.6217 32.5758 -9.1281 -1.3355 0.6736 4.3181 -4.4520 -0.1395 -3.5362 0.0692 -8.3347 -2.4289 -6.7742 -11.3101 -10.2076 -11.4743 -9.4519 -6.9987
3.8100 1.5013 10.9430 9.6866 2.0234 0.9228 1.9152 5.6626 -0.4260 6.3717 -3.1987 3.2063 4.3303 25.4980 -6.2930 -1.6201 0.3740 5.5607 -2.6404 0.9917 3.8061 -0.1854 -9.1060 -0.4816 -2.4618 -2.9522 -5.5834 -18.2474 -10.3334 -2.0234
4.1123 2.9199 12.3578 9.8088 1.7594 1.2294 4.0167 6.8471 -1.0249 4.0270 -2.3481 4.2982 4.6933 19.9152 -5.1401 0.0890 -0.1438 5.9949 1.5014 2.7652 8.0981 -0.8171 0.0927 1.6842 1.9771 3.0439 -0.0441 -7.7480 -3.7192 9.6834
2.7838 2.8282 11.3057 6.6741 -0.0894 0.3673 5.0200 6.7900 -1.5001 0.5184 -1.8642 4.4614 4.5601 14.3132 -5.5797 3.0472 3.1927 6.4416 2.7463 5.0409 9.9294 -1.1612 9.3010 3.8848 6.2384 9.2359 5.5287 11.5484 4.9759 12.6142
2.0566 2.2080 9.9471 6.3521 -1.3239 0.2210 4.5531 7.7380 -1.4572 -5.3340 -0.1412 4.5179 4.5984 1.4571 -4.6673 5.2559 9.4603 8.4455 2.1982 7.1609 11.5423 -1.0312 8.7951 7.3501 10.3752 18.2219 10.5567 20.4805 8.6947 8.1615
2.3538 1.8718 10.2827 8.2614 -1.0845 1.1689 3.6002 9.2454 -1.2900 -12.1172 2.3467 5.0348 4.0496 -17.7491 -1.9491 6.5061 12.1774 11.0836 2.1735 8.5153 11.7621 -0.9328 1.8027 11.3855 13.8179 22.1823 12.2331 12.8883 7.2195 8.3644
2.5663 2.5014 9.7206 7.3861 -0.3476 1.9847 2.9967 8.3375 -1.2287 -16.3871 3.2849 5.7247 2.8841 -30.6613 -1.0731 6.9068 9.0223 12.4806 2.3167 8.5647 11.2070 -0.9374 0.2235 13.0515 15.6866 18.4222 11.1566 4.4759 7.1681 13.0005
2.4690 3.9920 6.5572 5.4575 0.1674 2.0417 2.8071 5.3564 -0.8954 -14.5150 0.6301 5.6935 1.5952 -23.7398 -4.4936 5.9186 4.6038 11.9760 2.1977 6.9061 11.1932 -0.7212 6.8250 11.2271 14.9833 15.5024 10.9110 9.9678 10.9726 16.3688
2.2924 4.4598 5.2380 5.1055 0.3010 1.6892 2.8218 3.4812 -0.4174 -7.6106 -3.6471 4.8448 0.4290 -3.4721 -8.8662 4.9553 2.6049 10.1246 2.4632 4.6091 9.7918 -0.4787 10.8093 7.9528 11.8700 15.1915 10.5027 20.4426 13.0426 17.5418
1.8316 2.8938 8.1668 2.6411 0.1056 1.4696 2.4063 3.0196 -0.5202 -2.1172 -4.8589 3.7913 0.6936 7.7652 -9.1935 5.3121 2.9696 8.9261 2.6299 3.1947 6.9346 -0.5777 5.4734 5.5977 8.5602 12.5252 7.4991 18.0952 9.5377 14.4605
1.5860 1.2890 10.4917 -1.1603 0.1999 1.5604 1.2808 2.7646 -0.9518 -2.5863 -2.1433 2.7434 3.0381 0.9565 -5.5063 4.6482 4.6343 10.3666 1.3003 2.2768 5.6283 -0.6921 -1.2203 4.8967 6.8980 10.3006 4.9670 4.0468 3.9693 6.3733
2.1388 0.6271 9.5161 1.6280 0.6797 1.4459 0.1952 3.8966 -0.6209 -5.7623 0.2841 1.6307 4.8100 -8.3757 -2.0769 1.4420 4.9393 13.1987 -0.3288 0.7615 5.0976 -0.2994 0.1395 4.5909 5.6235 11.1855 5.5794 -4.4649 1.9010 -0.3459
2.7155 -0.2528 8.5000 9.4898 0.8397 0.9446 -0.3214 6.0523 0.3254 -4.4353 -1.1609 0.8252 3.8393 -1.1284 -2.6598 -1.3315 1.4583 14.4952 -0.1866 -0.8382 1.7508 0.3532 6.6998 2.7116 2.6259 8.1376 5.2449 0.8955 4.1195 -0.1626
2.5680 -0.1006 8.0094 10.7998 0.8695 0.8413 -0.5551 5.3927 0.6861 0.7000 -5.3181 0.7703 2.0677 16.5223 -7.8833 -1.5385 -3.2010 14.0139 -0.4214 -1.3134 -3.9727 0.6590 8.8024 -0.2179 -1.1979 -1.4042 0.6913 9.3306 5.2329 4.1862
1.8973 2.0344 4.9135 4.4617 1.2596 1.2097 -1.0646 1.1318 0.3503 2.2640 -8.1767 0.8185 1.2943 23.3938 -13.7837 -1.2424 -5.2165 13.3519 -3.3671 -0.8446 -8.2107 0.5852 3.3566 -1.7317 -3.5443 -7.8741 -3.8993 6.7775 0.6093 4.9058
0.9387 2.6167 -0.0218 0.9591 1.5519 1.1648 -2.3008 -2.9606 0.1678 1.0816 -7.7836 0.1984 0.2413 20.4850 -14.7255 -2.0815 -6.1856 12.9782 -5.4132 -0.7038 -9.1648 0.4782 -3.1305 -1.7101 -4.4477 -6.5248 -4.9954 -5.6421 -6.1345 -1.9808
0.1544 0.4662 -3.3621 2.8497 1.7826 0.8464 -3.8710 -4.4238 0.2529 0.7474 -5.4693 -0.2377 -1.7930 15.9069 -10.4121 -2.9011 -9.2402 12.4612 -2.8265 -1.4539 -9.1242 0.3665 -3.6400 -2.0487 -5.6361 -6.0091 -6.1041 -14.5714 -7.8537 -11.1944
-0.1944 -0.9300 -5.3596 3.9544 2.3002 0.8447 -5.0351 -4.0362 0.0457 -3.1483 -3.1190 -0.0575 -3.8658 0.4440 -5.6260 -3.1724 -12.9820 11.0170 1.4468 -2.7304 -11.3153 0.0243 0.2304 -3.2359 -8.0408 -11.9541 -9.5637 -11.9509 -4.6319 -16.2200
-1.0893 -1.7400 -7.1759 3.0514 2.0097 0.4897 -6.0712 -3.5403 -0.4778 -8.1223 -2.2629 -0.7376 -5.6051 -15.9825 -3.3431 -3.9133 -14.1013 8.1816 2.1744 -4.1587 -14.8442 -0.3990 0.3348 -4.6757 -11.2808 -17.7108 -12.0788 -4.8022 -3.8302 -16.9119
-2.6703 -4.4732 -6.4027 2.9769 0.4354 -0.5063 -7.0873 -3.6327 -0.6407 -4.7611 -3.2010 -2.3532 -6.4564 -9.0631 -2.7242 -5.1378 -12.1962 5.6197 -1.5089 -5.1632 -15.2162 -0.3510 -6.7095 -5.9993 -14.0375 -18.0549 -12.8774 -6.2093 -9.3249 -14.1221
-3.3187 -6.6580 -2.8844 2.8197 -0.6069 -0.9834 -7.1037 -3.9439 -0.0838 1.4682 -3.7034 -2.9406 -5.6571 5.6629 -2.3987 -5.7867 -9.7374 5.2846 -5.4036 -4.9559 -11.6225 0.2119 -13.4518 -6.6036 -14.7687 -16.3682 -14.8953 -17.3557 -15.3911 -9.6345
-3.0277 -5.5841 -2.2611 0.2638 -0.3452 -0.8668 -6.2020 -4.9533 0.5864 0.7013 -2.8912 -2.3324 -4.4281 4.3520 -3.1806 -5.2036 -8.7565 5.6411 -5.2385 -3.8423 -9.3522 0.6445 -11.0902 -6.3609 -13.3399 -15.3562 -17.4366 -24.5201 -14.7084 -10.4595
-3.1227 -3.4848 -6.6458 -2.7159 -0.0244 -1.2220 -5.5485 -6.8750 0.6949 -1.4836 -3.1768 -2.0442 -4.4965 2.5786 -6.1959 -3.5984 -8.7433 4.0648 -2.7750 -3.2004 -11.8775 0.7469 -3.4639 -6.3901 -11.7360 -15.0718 -18.4999 -18.3972 -9.6553 -19.0400
-2.5290 -1.8501 -9.9958 -1.9115 0.5994 -1.2681 -4.8265 -7.5249 0.5442 1.1078 -4.6742 -2.1048 -5.3287 11.5547 -8.7996 -2.5619 -8.4607 1.6541 -3.1431 -3.5497 -15.5339 0.8873 -3.1217 -7.3350 -11.7613 -17.1909 -20.0567 -9.6358 -9.2521 -25.8551
-0.0943 0.2962 -7.4570 2.2835 2.3931 0.1861 -3.2574 -5.5376 0.7023 3.8044 -4.8064 -1.6482 -5.2504 15.4285 -8.0332 -3.5071 -7.5805 1.2255 -6.3548 -4.0158 -15.1791 0.9664 -12.0567 -8.1135 -12.6323 -20.1109 -22.5464 -13.6982 -15.6836 -22.0250
1.7921 1.4415 -1.7986 4.8541 3.4083 1.4651 -2.0208 -2.6837 0.9954 2.3314 -3.4844 -0.8672 -3.4730 9.0001 -6.4595 -4.5793 -5.2625 2.9005 -8.0945 -3.6269 -9.9131 0.7924 -17.5149 -7.2195 -12.2648 -17.7959 -21.4197 -24.3287 -20.2329 -11.8461
1.5300 0.2339 1.7591 3.8828 2.0792 1.0003 -1.9831 -0.3831 1.1191 -3.2610 -1.4433 -0.1419 -0.4324 -2.1095 -6.6477 -2.8283 -0.8715 5.2832 -6.9937 -1.9066 -2.0735 0.8990 -10.8239 -4.2484 -9.4574 -9.7930 -14.5118 -21.1398 -14.1974 -5.5913
1.6308 -0.0493 2.9584 2.4145 0.8459 0.6245 -1.3180 1.7927 1.2596 -10.0751 1.3807 0.8634 2.6216 -15.5534 -6.4297 0.8277 3.7967 7.9874 -4.5510 0.7706 5.2420 1.4908 0.6001 -0.2680 -4.4234 -1.4654 -5.5901 -2.7180 -0.9091 -4.6552
3.1559 2.3409 5.5681 2.0756 1.3509 1.3857 1.1742 3.4495 1.5105 -12.2431 2.4980 2.0886 4.4261 -20.4996 -5.8332 3.3841 6.5786 10.4919 -1.4802 2.7461 10.8459 1.7756 4.5728 2.9324 0.7784 6.0154 1.3950 10.8030 7.3337 -2.4730
3.4500 3.6115 9.0391 2.4229 1.2237 1.0091 3.6502 3.6413 1.6006 -9.3442 0.6907 2.7821 4.3756 -11.6146 -7.0440 4.5982 7.5076 11.7282 0.7513 3.0167 15.1795 1.3795 -0.2861 4.5354 4.1220 12.6995 5.3264 8.4358 5.4010 2.3126
2.3999 2.3109 8.3128 4.7119 -0.2305 -0.7790 4.9212 3.2681 1.2640 -6.8346 0.5076 2.9000 3.0131 -2.8403 -6.4154 5.9017 7.6713 12.2270 0.3380 3.1520 16.3551 0.8646 -4.0222 5.3321 6.7976 13.5223 6.1746 1.0871 2.2107 6.0991
2.7959 1.7627 4.4112 7.7170 -0.3505 -0.9800 6.1568 3.3739 0.5351 -4.2291 4.2610 3.4238 1.7673 0.4992 -0.3546 7.7782 7.7828 13.2682 -0.3249 4.9077 13.2862 0.5625 1.3788 6.3164 10.5443 8.8214 5.6519 3.5699 7.2869 10.1156
3.7454 2.1521 3.8852 6.3363 0.4901 0.3384 7.2808 3.3185 0.0418 -0.1767 7.2692 4.8256 1.2085 4.1590 5.2193 10.5578 7.6644 13.6240 1.8960 7.5347 9.9008 0.4261 10.3963 7.6451 13.6511 7.3015 6.5790 15.8003 16.6663 15.3023
2.5271 0.9612 6.4720 2.1144 -0.6859 -0.0773 7.0387 3.1247 0.4367 -0.2774 6.4074 6.1409 0.7279 4.1761 3.7941 13.4917 6.6161 11.5173 3.8947 9.4073 8.4064 0.5884 10.8986 9.1501 14.6076 9.9284 8.5932 23.0222 19.1651 15.9882
0.6430 -0.5551 6.8711 2.6112 -2.9967 -2.1416 6.3888 3.3913 1.1750 -2.7961 3.9105 6.2438 0.4331 5.5159 -1.2376 13.7908 5.0547 9.0140 1.5137 10.2250 7.4982 0.9633 3.0739 10.6370 15.5628 11.3330 9.7427 15.4142 13.2446 11.9325
0.0026 -0.6955 5.5761 5.6561 -4.0614 -3.2539 6.5301 2.7935 1.2321 -0.1514 1.9655 5.4613 0.8973 18.3834 -3.9907 11.3765 3.7905 9.0493 -1.7859 10.4560 8.4922 1.1527 0.6196 11.5576 17.7844 13.9202 11.0667 4.3420 9.4569 12.2634
-1.0397 -1.3107 5.6838 3.1044 -4.8760 -3.5338 6.3468 1.0590 0.9190 1.8879 1.2990 4.9499 1.5640 24.5402 -4.2356 10.4802 2.1004 10.3355 -0.0838 10.4754 10.6404 1.1673 9.2063 11.6009 19.0268 18.7481 12.9795 7.4965 14.9203 18.0968
-2.5436 -3.1850 6.7464 -1.3476 -6.0178 -3.9949 5.4217 1.0363 1.1371 -1.7554 2.2549 4.9810 1.9789 13.5623 -2.9229 12.3273 -0.2864 10.6579 4.3997 10.5494 8.7049 1.2769 17.5162 11.4863 18.0905 18.7565 13.1146 22.5104 22.7664 19.9184
-2.4957 -4.7733 8.1333 -0.8393 -5.8610 -3.8251 4.7179 2.4723 1.5855 -0.2162 3.3611 4.8115 2.4820 13.3909 0.3281 12.6914 -1.7738 11.0796 4.2018 10.3551 4.4701 1.3791 15.0860 11.6161 16.1178 14.5646 12.1576 30.1600 22.0319 16.8240
-2.2142 -6.0289 9.6143 -0.2817 -5.0156 -3.2522 3.7176 1.2280 1.5677 7.9961 2.8965 3.7773 2.4065 29.0545 3.1551 9.4131 -1.8656 12.3892 -1.2441 8.9875 5.1915 1.3455 6.2127 10.7448 12.9650 13.3795 12.1495 19.9694 12.4629 16.3221
-3.3942 -7.4945 9.6368 -2.1865 -5.2099 -3.8027 1.9633 -1.1819 1.3021 7.7092 2.1101 2.0422 1.2575 26.7104 3.0754 5.4477 -1.8212 12.7042 -4.5358 6.1799 8.2812 1.3500 2.1270 8.0217 8.1827 13.0228 10.3167 3.4178 4.0510 16.1636
-3.8062 -8.3122 8.4065 0.5635 -5.4805 -4.8064 0.9730 1.2278 1.1427 -3.2013 3.5437 0.6637 0.6584 -0.4460 3.8571 3.5726 -2.0276 11.4635 -1.8028 2.9744 5.5065 1.4085 6.7602 4.6174 3.7545 8.6990 5.1723 0.2527 4.1178 10.7450
-2.2106 -7.8329 7.8523 5.9870 -4.5780 -4.4208 1.5117 6.1842 1.0858 -10.1373 6.6399 0.7085 1.1726 -22.6242 9.0948 3.5971 -2.2663 10.3773 2.2182 0.9657 -0.7697 1.4086 12.2263 1.7207 1.2580 4.1795 1.3180 11.8313 8.2115 6.6818
-0.8219 -6.1507 8.1678 4.5538 -3.2417 -3.1638 2.4033 5.8157 1.3095 -7.0539 7.1520 1.7327 0.8203 -21.0483 11.5479 4.0533 -2.9289 9.5353 1.8770 0.3765 -2.5739 1.5180 8.0858 -0.6057 -0.5994 3.2273 0.3054 17.2894 6.1783 7.9267
-0.5849 -4.1079 8.3935 -0.3074 -2.1933 -2.9001 2.4440 0.9422 1.7399 -1.2622 2.8993 1.9286 -0.6551 -2.6950 3.3821 3.6203 -3.5952 7.7932 -2.8162 -0.6914 -0.7970 1.8146 -4.3613 -2.3274 -3.1525 3.4280 -1.8449 3.1119 -3.9498 3.3708
-0.2735 -3.2442 7.9628 0.1965 -1.2857 -3.5267 1.6764 -1.7960 1.9034 2.1953 -1.9003 0.7633 -1.2496 16.5763 -7.6375 2.5176 -3.3523 6.2356 -7.7900 -2.8822 -0.3171 2.0538 -11.1994 -3.2379 -5.0909 2.5804 -4.9864 -15.3610 -12.3414 -9.7710
0.4175 -2.8408 6.2747 2.9889 -0.4848 -3.3924 1.4258 -1.7210 1.9528 3.5112 -2.9304 -0.1196 -0.8287 24.4122 -10.5287 2.2783 -2.9962 6.5130 -8.4015 -3.6164 -0.3758 2.2510 -4.3404 -3.0295 -4.2222 1.6459 -5.1047 -14.0661 -9.3566 -16.1088
0.8767 -0.7045 3.9504 3.4542 0.0037 -2.3187 2.3768 -1.1056 2.3253 0.8318 -2.3742 0.2647 -1.0495 16.9889 -9.2174 2.8581 -3.3418 7.5288 -3.6023 -1.9067 0.2057 2.6014 5.1032 -1.6008 -1.4708 1.6405 -3.0005 4.5184 0.0590 -10.3289
1.3015 1.7719 3.8652 4.2176 0.3051 -1.3599 3.2289 0.4989 2.6228 -5.4550 -2.6050 1.1515 -2.0660 1.1199 -9.9178 3.1135 -3.1833 7.3031 0.4579 -0.4939 -0.0413 2.7697 2.3180 -0.2882 -0.3152 1.4961 -2.4918 13.8405 1.4894 -5.0583
2.2556 1.7930 6.9318 4.2561 0.8737 -0.3078 2.9382 2.0137 2.2990 -8.6183 -0.7130 2.0445 -2.2501 -11.4333 -8.0732 3.5537 -1.9873 5.9219 -2.5947 -0.2897 0.4268 2.3304 -8.4397 -0.5231 -0.9797 0.2207 -3.1210 2.4534 -6.6902 -6.0223
3.0891 0.3538 9.0767 0.2638 1.5406 1.1487 2.1340 0.7755 1.5463 -4.2727 3.3933 2.7105 -0.8575 -9.6014 -2.4065 4.3790 -0.9476 4.7627 -8.2875 0.7171 3.1074 1.6168 -10.7412 -1.1492 -0.2950 0.8381 -1.4920 -10.3290 -10.2818 -8.1521
2.8126 -0.4489 7.3188 -2.5663 1.5577 1.5929 1.6850 -1.6142 0.8226 5.4339 3.9589 2.6581 0.6766 12.6380 -0.0112 4.1092 -0.3578 4.9274 -7.7007 2.2823 4.1948 1.1787 -1.2948 -0.2430 1.8668 6.0026 2.4905 -5.1372 -2.5085 -8.6138
2.2932 -0.7103 4.6415 1.3774 1.0349 0.6865 1.8058 -1.1445 0.5016 13.6044 0.7249 2.7415 1.1417 37.9622 -0.6758 3.1311 0.2870 6.7620 -2.7146 2.8342 2.2933 1.0217 6.9056 1.9530 3.1506 11.5889 5.4772 10.6073 7.0032 -4.7965
2.5466 -0.3665 3.7803 6.2717 0.6344 0.4098 1.9726 1.4275 0.6684 10.7403 0.1089 3.9195 1.0179 32.3924 0.8282 3.2412 1.3201 9.0861 -1.9831 3.6174 2.6823 0.9458 4.7961 4.5306 4.3168 13.9026 6.3791 17.3545 8.9295 3.2571
2.1114 1.3246 2.6854 3.1754 0.2411 1.1025 1.6365 0.9711 0.7634 -1.6328 2.0656 4.7108 0.2964 0.9811 0.7136 3.8102 3.8123 9.8057 -5.1230 5.7601 7.2384 0.8724 -2.0138 7.3143 7.1215 15.3783 7.4562 10.3811 4.9151 7.2869
0.4940 3.3379 1.2871 -4.9090 -0.1014 1.2286 1.7048 -2.5926 0.3910 -7.6164 1.3539 4.3896 -0.9564 -11.5031 -3.8730 4.4249 7.6809 8.9335 -3.7617 7.6150 11.3495 0.7221 -2.2138 9.6895 10.4241 16.8865 9.6512 2.3491 2.8248 6.6252
0.7679 4.0173 4.2228 -6.2970 0.3994 1.3242 3.3628 -1.9110 0.0853 -2.7513 -0.1446 5.3291 -0.4450 1.6665 -5.3091 7.1901 10.0565 9.1014 3.4916 8.7628 13.1661 0.4974 7.1220 11.3083 12.9415 17.2877 12.3798 7.2054 8.9121 11.5439
3.4692 3.8479 10.7979 -0.0064 1.2635 2.3091 5.4643 3.9818 0.1785 0.0664 1.2269 7.7440 2.1790 8.1812 -2.5299 10.9157 9.3391 11.5532 7.9843 10.5851 14.5140 0.3098 16.0895 12.9874 14.6504 19.2323 16.1017 23.3615 19.5179 20.7001
4.2964 4.5223 12.8264 1.7510 0.9202 2.4054 6.0728 5.1404 0.0874 -3.3874 1.5098 8.2619 2.9172 4.7890 -5.2044 10.7587 7.5826 14.3101 3.9607 12.0691 15.0856 0.2081 14.1675 14.5306 14.9079 23.1382 19.6286 31.9666 23.1951 24.1033
2.2860 6.0230 8.7133 -3.8176 -0.3540 0.9574 5.4276 -0.2352 -0.3882 -8.6680 -0.9778 6.4523 0.6612 -0.8647 -12.3380 7.2635 6.8855 15.3462 -3.2584 11.2155 14.6625 0.1516 5.2955 14.2399 13.9521 23.3886 19.3733 21.0175 17.3086 23.1111
0.8244 5.9166 6.2879 -6.2535 -1.2816 0.0734 4.5629 -1.5986 -0.5871 -16.6691 -0.7318 5.0300 -0.6217 -21.2185 -12.6401 5.8193 6.9573 14.7858 -4.7971 8.9945 14.4312 0.0335 2.7031 12.0086 13.6959 17.7364 15.6327 6.1385 12.0845 21.3874
-0.3329 2.4988 7.6962 -4.3629 -2.3701 -0.2709 3.5294 1.9791 -0.3402 -20.5857 2.0355 3.9512 0.1598 -37.2326 -6.0220 6.6940 6.5363 14.1459 0.6456 7.3344 13.0717 -0.2078 9.7729 10.1277 14.5278 11.5139 13.8071 9.4580 14.1988 15.8324
-2.7305 -2.1193 7.7440 -4.2748 -3.8971 -1.7888 2.7420 1.7553 -0.2325 -8.4355 1.4753 2.1265 0.6458 -10.3847 -0.9821 6.1579 5.3814 14.9900 6.4247 6.0740 10.4415 -0.3536 16.1820 10.0485 14.7814 10.1995 16.1387 25.1650 18.5926 10.1882
-3.2814 -4.7509 6.7882 -1.8201 -4.1625 -3.1920 2.5938 -0.2409 -0.3613 8.8945 -0.7507 1.3799 1.2400 32.5324 1.0815 4.5665 4.5009 16.8287 6.2264 4.3848 10.2635 -0.1255 13.3564 10.4617 13.2556 13.0507 18.0202 28.9438 17.8455 11.7192
-1.0534 -5.3232 8.2168 4.1758 -3.1318 -2.8304 1.9320 1.9055 -0.3023 9.3120 0.5792 2.3556 2.8796 32.9917 2.1579 3.9986 4.2525 17.4429 0.0911 2.5916 11.7729 0.2385 5.3750 9.7791 10.5165 14.9296 15.8565 15.6755 11.5437 15.0867
-0.5507 -4.9235 8.9195 3.5376 -3.0243 -2.2849 0.6240 3.5294 -0.1146 -3.6546 3.1208 2.5229 3.5376 0.5489 1.2045 3.4166 3.9279 16.6846 -5.3003 1.6608 9.7475 0.2106 2.8869 8.6415 9.1671 12.9773 12.5376 4.9273 6.5399 12.7158
-1.8556 -2.9633 6.8641 -1.0470 -3.5381 -2.4096 0.9558 2.5740 -0.2077 -10.6271 2.3662 1.7682 2.6428 -15.1445 -1.1196 2.3658 3.7188 16.0172 -3.4958 1.7710 5.1388 -0.1698 8.4473 7.9610 10.7920 9.1236 10.6822 10.1354 8.0861 9.4031
-0.4340 0.0498 7.0715 2.8949 -2.3933 -1.6101 3.1050 4.8577 -0.6378 -8.7579 0.0112 2.3350 2.2446 -9.0041 -2.4899 2.3779 4.1601 15.1228 1.9535 1.6579 3.0599 -0.4410 11.9883 6.7515 11.7633 7.1502 8.3771 20.6279 10.7158 9.5220
2.5133 1.2874 10.5237 9.2928 -0.2354 -0.1171 3.9495 8.0964 -1.0675 -6.7743 -0.0858 3.1159 2.7065 -5.6418 -2.4534 2.5140 4.3197 13.6333 2.3687 0.4600 3.8368 -0.5671 5.9013 4.4894 7.8731 9.7076 5.7884 19.2454 5.9716 6.4890
2.5005 -0.0455 10.8897 6.3940 0.5661 0.0536 2.3175 5.7534 -1.0533 -6.8914 2.1658 1.8522 2.9112 -10.4562 -0.7293 0.4565 3.3428 12.3010 -1.9247 -0.7505 4.9020 -0.7552 -2.6372 2.6848 1.6687 13.4759 4.9888 5.2087 -2.9554 -2.0752
-0.1260 -2.2648 5.5972 0.3422 -0.3427 -1.2040 -0.2770 1.1732 -0.7001 -6.6947 3.7799 -0.0084 2.3372 -14.8029 2.9057 -2.9952 1.5492 10.4135 -4.2428 -1.1807 4.0217 -0.9222 -3.2901 2.0003 -2.1049 9.2727 2.7233 -7.3651 -6.1709 -5.7969
-3.0469 -5.2911 -1.1070 -1.5407 -2.0159 -2.5744 -3.2140 -0.9406 -0.8141 -2.8514 3.0563 -0.6167 0.8871 -9.8443 7.5974 -5.2195 -1.0157 7.6252 -3.3584 -1.4860 -0.6280 -0.9999 1.9071 1.4267 -3.8830 -4.1467 -3.7144 -6.6319 -2.2212 -0.5683
-5.3126 -9.2099 -4.4396 -3.1792 -3.3743 -3.3062 -5.7611 -2.4713 -1.3483 5.9863 2.2154 -0.8325 -0.4082 6.3032 12.7177 -5.2794 -3.4433 6.0871 -2.8695 -1.5978 -5.8359 -0.9521 3.5031 1.0733 -5.5823 -14.6343 -8.8663 3.6146 1.5376 1.8598
-5.9232 -11.4466 -3.4789 -5.4599 -3.5444 -3.2922 -6.1960 -3.9860 -1.0386 12.8180 3.3921 -1.0925 -0.4788 18.5524 16.3269 -4.2050 -3.0547 6.5716 -4.0988 -0.9101 -5.3353 -0.5507 -1.3543 1.8061 -5.9057 -13.8006 -8.5609 7.4508 -0.1064 -3.9370
-5.2123 -10.5883 -1.8103 -5.0799 -3.0761 -3.0337 -5.1134 -3.9074 0.0296 10.2934 4.6119 -0.4923 -0.4013 13.2376 15.3690 -3.1179 -0.1412 7.5124 -4.6018 -0.0863 -0.6376 -0.0722 -6.4430 2.7369 -4.3042 -8.0208 -6.8492 -2.0285 -4.2088 -7.5447
-4.6937 -8.6777 -2.5456 -3.5858 -2.7706 -2.8408 -4.7539 -3.1101 0.0427 3.2415 4.0051 0.6181 -0.7822 0.7520 11.3408 -1.9686 1.0373 8.3051 -2.3196 0.3292 1.0672 -0.2635 -5.0005 2.7163 -3.1939 -6.9189 -7.0280 -11.4765 -4.3137 -4.5483
-4.2638 -7.3977 -3.4640 -3.5537 -2.2143 -2.1621 -4.9081 -2.3481 -1.1556 1.5250 3.0684 1.2130 -0.3712 -1.5920 9.6672 -0.7711 -0.3567 8.6188 1.2490 1.0808 -0.9862 -0.9342 1.6224 2.5637 -3.1136 -10.8727 -6.9346 -7.0027 0.7354 -1.8876
-3.6000 -6.6830 -1.6785 -4.5229 -1.6812 -1.1678 -4.0167 -1.4699 -1.5869 5.7969 3.0603 1.6204 0.1468 5.4726 11.5686 -0.1501 -0.9940 7.3297 3.2620 2.3221 -2.3303 -1.1086 4.3370 3.0522 -1.6631 -13.6446 -5.5361 4.0260 5.2161 -1.0196
-3.2269 -6.4338 1.2483 -5.1907 -1.9339 -0.6931 -2.4877 -1.3050 -0.6725 9.0397 3.6130 2.5785 -0.9836 10.0266 12.8952 0.7797 -0.5953 5.2791 2.6915 3.3138 -1.6496 -0.6427 -1.3462 3.5494 1.6135 -12.0115 -4.7287 4.9185 4.2028 1.2123
-2.3551 -6.1447 3.0188 -4.4018 -1.7528 -0.0662 -1.5193 -1.6315 0.1657 8.6154 4.9638 3.9055 -2.2578 8.7859 12.1559 3.2873 -0.6526 5.1356 1.1637 4.2097 0.2221 -0.1109 -7.0260 4.0393 4.6359 -8.2855 -4.2557 -3.8475 0.8308 3.4412
-0.4287 -5.1161 3.7293 -2.0921 -0.2709 1.3223 -0.8888 -0.9423 0.3531 7.8441 6.8913 4.8301 -1.9774 7.0591 12.1762 5.5578 0.2514 7.1464 1.7364 5.2470 2.5143 0.2935 -3.7506 4.8241 6.2219 -5.5084 -2.3011 -6.4324 2.5986 4.5229
0.7743 -3.6153 3.9947 0.3464 0.6232 1.9129 0.0732 0.6445 0.5274 6.6969 6.8153 4.6430 -1.9128 5.8144 11.4212 5.2639 2.3756 8.6563 4.4525 5.3353 3.0750 0.5720 3.6448 4.8709 6.4050 -4.8210 -0.1286 3.0129 9.3956 5.8384
0.6356 -1.8390 4.1732 1.0914 0.1212 1.0978 1.3184 1.5809 0.8141 3.1620 4.1349 3.7283 -2.4886 2.3934 6.8906 3.8593 3.7609 8.3400 4.8428 4.1384 2.3960 0.6817 5.0072 3.9909 5.8402 -4.8906 0.5212 12.7854 12.2186 7.5434
0.8743 -0.2505 4.2581 -0.9869 -0.1472 0.5931 2.6642 1.1757 1.1247 1.6839 3.9003 3.4520 -0.8665 -1.1246 6.4565 3.8209 5.6879 7.9331 0.9428 3.4569 5.5531 0.8961 0.7177 4.0859 6.5568 -1.0420 2.4429 12.7337 7.5748 10.6507
1.5098 -0.4472 4.3088 -3.7388 -0.2598 0.6771 3.9816 0.7880 1.7339 3.8755 8.9352 3.9101 2.9079 -5.1810 16.2775 4.7368 9.5709 9.4074 -2.3570 4.4530 13.4177 1.2938 -0.1796 5.8760 9.8839 9.1530 8.5004 7.9045 3.8431 15.2449
1.4370 -2.0840 5.7874 -2.3768 -1.3372 0.1661 4.8074 2.8965 2.1420 0.3623 13.5606 3.9222 5.2417 -17.6826 23.7246 5.2920 11.5889 12.1936 -0.9011 5.6711 19.1704 1.3190 6.4802 7.4203 13.3102 18.7966 14.8704 9.1460 8.0896 15.5331
1.6150 -2.7265 8.5902 3.4560 -2.0543 -0.3540 4.7667 7.0512 1.4268 -9.3081 12.9676 3.5456 5.0121 -32.8656 19.2168 5.7077 9.5180 13.8812 2.2924 5.3264 18.6891 0.7609 13.9085 6.9007 13.0524 19.5559 16.1502 17.5829 15.0720 9.7663
2.5336 -2.1760 9.8864 7.5184 -1.4106 -0.1131 4.4144 9.1663 0.1883 -11.1005 10.1938 3.7093 4.1963 -31.2938 13.4715 6.2370 7.9090 13.5036 3.0434 3.9800 16.2569 0.1756 12.5340 4.9682 9.5786 14.5851 13.8284 23.0362 15.1311 7.2431
2.4056 -1.8129 9.8325 5.8736 -1.2432 -0.2844 4.5808 7.9550 -0.1085 -5.8163 8.5704 4.1034 3.7437 -19.6951 12.6778 6.0466 9.6206 12.6271 1.9546 3.2474 15.8822 -0.0918 3.2284 3.6993 7.0007 12.2870 12.3029 17.5101 7.6516 11.7818
0.5980 -2.1936 10.1682 2.2453 -2.5432 -1.3914 4.2674 6.1761 0.5478 -7.4606 7.2182 3.7335 2.8790 -21.3579 9.6011 4.6575 11.0028 12.7141 1.0237 2.8386 15.6469 -0.1390 -2.4107 3.6361 6.8396 13.2977 11.9133 6.9589 1.4187 14.6545
-1.3136 -4.2086 8.6356 1.4237 -3.7569 -2.2931 1.8790 4.5604 0.9917 -9.7265 5.4663 2.5092 1.6377 -21.9583 5.8769 2.7258 9.7870 13.7128 1.0486 1.5241 14.0264 0.0847 2.2418 3.2563 6.0975 14.8018 11.8743 4.5479 2.9677 11.2259
-2.0824 -7.1665 5.1033 3.4213 -3.8420 -2.6315 -0.6748 2.6865 0.8691 -0.1342 3.9325 1.2192 1.1834 1.5283 7.7312 1.2361 8.2939 14.6922 2.8555 0.0412 12.4255 0.5682 9.6438 1.8591 3.0083 17.3140 12.4545 12.9282 8.3238 5.3044
-1.9462 -7.2473 4.6346 4.6054 -3.4864 -2.9521 -0.2305 2.2332 0.8363 6.7816 2.4129 0.5934 1.5878 19.1738 7.7387 0.6267 7.2642 14.2401 5.0967 -0.3092 10.8627 0.9001 9.1154 0.8391 0.5018 18.8673 11.7586 19.8191 8.5933 0.5148
-1.8431 -3.5767 7.4856 1.3366 -3.3518 -3.1005 1.7489 2.5735 1.0879 -2.7813 0.7328 0.6752 2.2630 2.0466 -0.4583 0.4794 5.6616 12.6702 3.7787 0.0296 9.8265 0.7455 1.4377 1.5692 1.1812 15.5790 8.5090 14.1914 2.4036 0.7704
-1.9729 -0.6432 8.5426 -4.3382 -3.0966 -2.5804 1.9242 1.0871 0.9275 -11.2301 -0.3250 1.1131 3.5036 -14.1897 -7.4546 0.3918 4.2578 12.5706 -0.0782 0.7131 10.7532 0.2364 -2.4580 3.5665 3.4364 9.6739 5.3801 2.4289 -1.4119 7.0471
-1.8326 -1.2045 7.5898 -5.2604 -2.4261 -1.6023 0.6270 -0.2075 0.1772 -4.8705 -0.8254 1.6123 4.3313 0.6316 -6.9013 0.5732 2.7513 13.5763 0.8444 1.9228 9.8105 -0.2119 3.0925 4.7800 4.4890 4.7824 3.4340 0.3529 3.7946 10.6033
-1.7131 -3.1058 8.0636 -0.5060 -2.0120 -0.8463 -0.7183 1.6420 -0.2817 0.8635 -2.2505 1.7011 2.7265 15.2115 -6.9518 0.7994 -0.0605 11.8221 6.8676 2.2477 3.8670 -0.3827 9.7207 3.8800 3.4700 1.4216 1.0249 9.6851 11.7646 3.7586
-1.8489 -3.7584 8.8975 2.6297 -2.1026 -0.3112 -2.1103 3.5875 -0.2119 -4.2584 -3.7681 1.2135 -0.0217 4.7394 -10.8342 0.8353 -1.7441 7.3764 8.2130 0.9871 -0.3454 -0.6278 6.8436 2.1620 1.8785 2.2302 -0.6641 14.6989 11.6623 -6.5195
-1.2636 -2.8389 7.0455 1.1113 -1.5644 0.6987 -2.4358 2.2751 -0.5575 -7.9779 -1.7923 0.9666 -1.1444 -9.7104 -8.8959 1.4056 -0.3360 4.1211 1.7907 0.3064 1.5359 -1.3150 -3.0831 1.3253 2.0347 5.2336 -1.4040 5.4532 2.9377 -7.2160
0.1233 -1.3068 4.5124 -0.9561 -0.1151 1.8552 -0.6524 0.1820 -1.5054 -3.1409 2.4829 1.3595 -1.1037 -9.0093 -0.4482 2.1442 1.2718 2.7364 -4.0693 1.0606 2.9343 -2.0514 -8.0509 0.9578 3.6046 1.4479 -4.1073 -6.6739 -4.3772 1.5805
1.1623 -0.3140 5.7843 -0.4170 0.7386 1.8802 1.5522 0.6305 -2.0316 2.8938 2.8775 1.6718 -0.9840 4.2657 1.2523 1.9742 1.3582 2.3516 -4.5055 1.5554 1.0869 -2.2720 -2.4352 0.6732 4.2781 -4.6637 -5.3818 -3.7894 -1.7175 5.6824
1.7028 -0.3280 9.4770 2.3059 0.4041 0.8269 2.7171 2.6728 -1.7098 6.5826 -0.5444 1.9362 -0.1863 23.2183 -4.8850 2.3535 1.9742 4.0502 -2.2479 1.7953 0.8800 -2.0895 5.5669 1.2351 3.9858 -0.0924 -0.1884 11.8690 6.6768 -0.5293
1.7871 -0.3664 9.4172 3.8667 -0.0403 -0.0545 3.4884 3.0291 -1.1847 9.7047 -1.8974 2.8290 0.4316 34.8683 -5.7459 4.2162 3.4624 6.3771 0.1720 2.7636 2.5004 -1.8386 4.4412 2.2941 4.2265 7.6485 4.6331 18.5125 7.7879 -3.4872
0.8346 0.4799 5.2906 1.2488 -0.1188 -0.3199 3.7592 0.6247 -0.9543 9.7372 -0.9561 3.5024 -0.5473 28.6695 -1.0540 4.5158 4.0775 5.8412 0.7068 3.3099 3.5397 -1.5305 -4.2567 3.0962 5.2291 5.1175 2.4940 6.4413 -0.5489 3.8851
-0.7027 0.2768 2.8484 -2.4765 -0.3111 -0.3877 2.4006 -1.9874 -0.8256 6.8038 -0.6582 2.3619 -1.7590 17.3296 0.4265 1.8468 3.4998 4.0321 -1.5792 2.5336 4.6389 -1.1147 -7.0930 4.0303 6.2230 -0.5638 -0.0403 -7.6385 -5.3682 6.2226
-2.2916 -3.4808 2.3799 -3.3103 -0.9015 -0.7808 -0.0978 -2.8981 -0.4477 7.3957 0.9944 -0.3598 -1.8186 16.6007 3.5268 -0.5781 1.9801 5.1510 -2.1652 1.4841 3.6844 -0.6576 1.1940 4.6109 5.9932 -2.7807 0.5578 -6.4567 0.0750 -5.0319
-4.3595 -8.6907 -0.3943 -3.6731 -1.9815 -1.8023 -2.1219 -3.5235 0.0422 11.7456 4.9724 -2.5302 -1.6043 19.2797 13.9214 -1.1612 -0.4328 8.4579 1.3785 0.8462 -0.8978 -0.3213 9.5436 3.8119 3.8290 -6.9234 -1.1784 4.9073 6.9365 -14.1189
-5.9033 -10.8119 -4.1930 -5.1413 -3.1388 -2.7643 -3.3454 -4.5955 0.1188 13.1596 7.0881 -2.4608 -0.9363 16.5772 21.3900 -1.7944 -2.3405 10.7111 3.0110 0.7968 -3.0605 -0.3821 7.4368 3.0158 1.1505 -8.6192 -3.6566 9.9928 6.7548 -11.1315
-5.4012 -9.3153 -5.5236 -4.8898 -3.3278 -2.4369 -4.4153 -4.7530 -0.3303 9.6688 6.4699 -0.7864 1.2131 11.5031 18.9691 -2.8604 -2.3955 11.8979 0.5577 1.8809 0.7758 -0.8821 -0.6467 3.8617 0.1086 -1.3841 -1.3645 2.0943 1.5449 -6.4145
-4.1344 -7.1117 -5.2618 -3.5314 -2.4935 -1.0126 -5.1150 -3.8396 -0.8299 3.6075 6.5311 0.5081 2.7898 1.4580 14.3965 -3.0546 -1.8658 12.9144 0.8284 3.3003 4.3394 -1.3721 -2.6454 4.6150 0.7375 4.1129 1.8527 -8.9228 -2.0444 -5.5287
-3.7720 -5.5901 -4.5468 -2.6598 -1.7858 -0.1048 -4.7365 -2.3844 -1.0447 -2.7236 6.2439 0.5959 1.2539 -12.5487 11.4366 -2.9090 -2.9583 12.1804 5.0963 2.9921 2.5986 -1.4766 4.5083 3.0193 0.9157 -1.4536 0.9581 -7.8231 -0.1119 -3.9735
-3.7067 -4.2742 -3.5229 -0.7306 -1.7060 -0.5731 -3.6996 -0.7518 -1.0728 -6.3379 2.7946 0.0174 -1.4818 -16.8911 5.9601 -3.3095 -4.9301 9.3284 7.0829 0.8337 -0.9433 -1.4115 10.8100 0.4352 -0.8239 -8.6015 -0.5853 4.9836 4.0267 -3.1947
-3.7688 -3.1433 -4.0546 -1.1047 -1.9388 -1.6622 -2.9911 -1.1414 -1.1147 -7.7214 0.1120 -0.7825 -2.1391 -15.9648 1.4021 -3.1891 -4.5980 7.5539 5.9240 -1.0795 -1.3778 -1.5373 7.1330 -0.6552 -3.2337 -6.1786 0.8814 11.4242 2.8685 -4.7816
-4.5586 -2.6423 -6.0167 -7.1710 -2.2992 -2.3603 -2.7057 -4.2003 -1.2114 -10.8116 2.3183 -1.5695 -1.4895 -27.7959 3.5720 -2.5281 -1.9978 7.7674 4.1623 -1.9228 0.6832 -1.7465 -2.3975 -1.0664 -4.8501 0.5835 2.0024 1.5237 -4.7626 -2.8225
-5.3226 -3.3749 -6.4571 -10.2550 -2.7759 -2.7593 -3.0672 -5.8270 -1.1133 -13.6893 4.4185 -2.2792 -2.1980 -39.4851 6.0220 -3.6757 -1.3869 6.4893 0.9903 -2.9781 0.8987 -1.6124 -6.6396 -2.7808 -6.9053 1.1381 -0.0927 -11.0398 -10.7027 1.7487
-5.7385 -5.6435 -5.4034 -4.8041 -3.3790 -3.3977 -5.0138 -4.1758 -0.5844 -10.9159 0.8992 -3.4341 -3.5666 -26.1017 0.7493 -6.7755 -3.6886 3.4234 -0.9452 -4.6917 -2.5706 -1.0082 -1.9033 -4.4615 -10.1435 -1.4262 -1.4469 -8.0802 -7.8842 -2.0605
-6.1654 -7.6704 -4.9381 -0.1659 -3.5868 -3.7272 -7.4104 -2.6545 0.0403 -4.2117 -4.0167 -4.8535 -2.8942 -0.6980 -5.9715 -8.6344 -4.5480 2.5793 2.0783 -5.8940 -6.3558 -0.3763 3.8489 -3.9700 -12.0184 0.1197 0.1438 5.8977 -1.0216 -13.9582
-5.1069 -7.3484 -3.7404 0.3648 -2.5137 -2.7652 -7.3888 -1.6930 0.2423 0.6234 -3.8568 -4.9730 -0.4033 8.1984 -3.8177 -8.2386 -2.8191 3.9138 3.9847 -6.0496 -5.9999 -0.1911 1.2960 -2.6146 -11.0494 0.8756 0.0905 9.1472 -0.8156 -17.5627
-2.1578 -6.1076 0.2718 3.5729 -0.8703 -1.0770 -5.4703 1.3022 0.1341 1.6115 0.2121 -3.3938 1.8514 0.1809 4.7053 -7.8969 -2.1084 4.0807 -0.6715 -5.4878 -1.6087 -0.3266 -6.8253 -1.8592 -8.9736 -2.0866 -1.7208 -3.9803 -6.9779 -8.5073
-0.7556 -6.7217 4.6631 5.4536 -0.7363 -0.3214 -4.7183 3.9100 0.0848 0.4538 3.6532 -1.7550 3.5776 -7.7814 10.1810 -7.2780 -2.9797 3.9800 -4.3562 -3.7233 2.1538 -0.4148 -7.7565 -0.1821 -5.8585 -0.7831 0.6213 -13.3520 -7.9959 -4.7498
-2.3858 -8.2939 5.6302 -0.7592 -2.2395 -0.7422 -4.6574 2.8008 0.0271 -0.6372 5.8557 -0.7051 4.7366 -10.0841 11.6613 -3.5461 -3.1641 5.6447 -0.9766 -0.4173 2.1025 -0.4862 1.8307 2.6548 -0.1940 4.2931 5.0780 -3.9456 -0.2598 -13.2128
-3.4534 -7.2256 3.7257 -6.6290 -3.0572 -0.7889 -2.9312 1.2174 -0.1686 -3.0470 7.4822 0.6038 4.3268 -16.7286 12.7797 1.1575 -3.2359 6.5276 2.9992 2.4198 -0.0893 -0.6953 8.2295 3.7941 4.9417 3.1782 3.6407 11.3387 5.7998 -15.3500
-1.8443 -2.8250 2.1455 -4.5959 -1.9592 0.2888 -0.7386 2.1855 -0.3504 -8.3300 6.5226 1.9106 2.8171 -29.4545 10.2172 2.0214 -3.8406 4.4273 2.1171 2.6158 -1.6889 -0.9240 1.4464 2.3903 4.8986 -4.1664 -3.3004 11.3294 2.4453 -2.5713
0.1342 0.9475 2.3398 -1.0933 -0.3161 1.3305 -0.0755 2.9194 -0.4395 -10.1884 3.0413 2.4497 1.9146 -28.7287 2.0952 0.8897 -2.6035 1.8244 -0.1670 1.6494 -1.7167 -1.0199 -8.8654 1.1179 2.1863 -9.7538 -8.7839 -3.1563 -4.2501 8.2769
1.0344 1.0504 4.3406 0.2716 0.3909 1.4037 0.2532 2.8085 -0.4814 -4.1514 1.0935 2.5915 2.0657 -8.4950 -3.3639 1.7798 0.7409 0.9697 -0.6225 1.9089 -0.7138 -0.9717 -9.0055 1.3011 2.0721 -10.2823 -9.3184 -12.0067 -4.9425 6.7941
1.5916 -0.6576 7.2253 3.8170 0.1652 0.8881 1.0550 4.9765 -0.4572 2.5076 0.8408 2.3542 2.4522 9.6138 -2.7141 2.2943 3.1696 0.6554 -0.2170 2.0256 -1.2220 -0.8481 -0.9995 1.2943 3.0263 -7.7382 -5.9547 -4.1649 0.1254 2.8039
1.6796 -1.5612 8.2855 7.6968 -0.3742 0.3089 0.8828 7.5012 -0.3576 5.3378 -1.2186 1.4965 2.6355 18.5836 -3.0882 0.6063 4.0267 0.2856 -0.2100 0.3652 -3.8501 -0.7093 3.1442 0.2178 1.7821 -5.6095 -2.3375 8.2909 3.5844 2.2654
1.5181 -1.3660 6.9698 7.2418 -0.4825 -0.1217 0.6264 6.5879 -0.1475 8.1285 -2.7993 1.1572 3.2824 27.5494 -5.0191 0.3509 4.9193 1.4653 -0.9882 -0.9342 -4.3574 -0.4553 -1.5432 -0.9508 0.6727 -5.7502 -2.7251 7.3123 0.6138 -0.9538
2.3236 0.2950 6.9080 4.8298 0.1201 -0.4865 3.0167 4.9083 0.2113 6.8507 0.1409 1.8265 4.4814 22.7107 -3.1114 1.8907 5.8231 4.0338 -2.1089 -0.4933 -0.8662 -0.0380 -8.2225 -1.6296 1.8185 -6.8434 -5.9434 -6.0715 -5.6727 -5.2876
3.0217 3.1482 8.4436 2.5119 0.3286 -1.1557 6.2731 5.2654 0.4813 -5.3595 3.9120 2.0449 4.6695 -9.1319 -0.8195 1.9202 6.3089 6.2745 -1.7403 -0.2358 3.4044 0.1990 -6.7240 -1.5434 3.1727 -5.3954 -4.1748 -11.9962 -6.4996 -1.1212
1.5922 4.0809 6.1430 -0.7663 -0.7521 -1.9673 5.9183 4.7166 0.2676 -17.8691 4.1721 1.0452 3.4096 -38.6165 -1.2325 0.9836 6.6802 7.9559 0.9223 -0.9248 6.4607 -0.0876 3.2068 -0.4059 3.4658 1.4939 4.9662 0.1265 1.1818 6.7750
-0.5869 1.6880 -0.4439 -2.5157 -1.7531 -2.1386 2.7042 1.7397 -0.3857 -14.5746 3.2979 -0.3534 2.1578 -32.2676 1.3859 0.5588 6.0738 8.0075 3.1026 -1.4795 7.0570 -0.6578 9.0962 0.4366 3.0402 9.1621 11.3655 14.0498 7.5586 5.3088
-0.9356 -0.4599 -3.6958 -1.1344 -1.1024 -1.3913 0.9332 -0.5238 -0.7748 -1.4654 2.9609 -1.2244 1.2553 -6.2353 5.7116 -0.4157 3.6452 4.4437 2.2560 -1.9985 3.3701 -0.8850 3.0147 -0.5653 1.6814 7.6142 7.4487 9.7695 3.0642 -1.3079
-0.0299 -0.3822 -1.1601 0.7296 0.1426 -0.5337 0.9352 -0.3207 -0.2916 4.4387 1.5211 -1.3589 0.2423 5.7927 4.0766 -1.3615 0.3345 -0.7744 -0.0244 -2.8753 -2.0315 -0.4513 -5.6582 -2.3054 0.0603 -2.3934 -0.4901 -6.8348 -6.4890 -1.6464
