Fp1 Fp2 F7 F3 Fz F4 F8 FC5 FC1 FC2 FC6 T7 C3 Cz C4 T8 CP5 CP1 CP2 CP6 P7 P3 Pz P4 P8 PO9 O1 Oz O2 PO10
4.3895 -0.5943 2.1913 0.6922 0.8502 -0.2767 3.5678 -1.8220 -2.4804 1.5161 1.3261 -1.3782 -3.8961 -0.7521 3.6960 -0.2909 -2.2656 -2.8216 -2.6820 1.5581 -0.4592 -2.6287 -4.8276 0.1664 -2.8659 2.7467 -8.1614 -12.0688 -8.2233 3.2972
-0.8541 -0.3763 1.1056 1.3587 0.5993 0.1839 1.8920 -0.8205 -1.1652 2.2405 0.7228 0.3301 -1.3263 -0.0693 2.7752 0.9397 -1.0612 -1.1385 -2.2120 0.0122 -0.4132 -1.2165 0.8799 -0.2702 0.0610 1.9912 -0.2656 -0.6662 -0.3402 1.1937
-1.7050 0.0466 0.1171 1.4278 0.0816 0.2047 0.3803 0.0667 0.0066 2.3588 0.6871 1.5478 0.5687 0.2881 1.2475 3.0329 -0.0867 -0.3520 -1.7704 -1.1358 0.2643 0.1239 5.4264 -0.7604 4.1397 1.7828 8.3240 11.4168 8.2220 0.0156
1.2938 -0.7083 -0.7387 0.9993 0.0045 0.7284 -0.4032 0.8821 0.5844 1.6715 0.9338 2.4328 1.0659 0.2774 -0.3074 -0.2266 -0.3195 -0.4097 -1.4789 -2.0487 -0.5659 -0.2583 1.8451 -1.5886 1.2084 0.9847 3.1906 5.0135 3.7541 0.3327
2.5948 -2.0955 -1.1554 1.0126 0.3867 1.5817 -0.8222 0.9351 0.5027 0.6651 0.0999 4.1132 1.1632 0.0381 -1.8119 -6.1179 -0.7048 -0.5113 -1.3990 -3.4817 -1.6990 -1.4750 -4.6814 -2.5535 -6.3284 0.6647 -8.4810 -10.4959 -7.6126 0.4126
2.0590 -3.3234 -0.2235 2.0323 0.7875 1.8715 -0.4680 0.5146 0.2827 -0.5445 -1.4667 3.4209 1.0901 -0.3923 -3.1990 -5.9750 -0.6026 -0.7818 -1.5027 -4.2993 -0.7701 -1.7320 -4.5914 -2.9124 -7.0850 1.2436 -8.0629 -10.5413 -8.1114 -0.2375
2.0485 -3.6537 1.1106 3.2161 0.9499 2.0617 0.4811 0.2829 0.3529 -1.7301 -2.0153 -1.1414 0.6017 -0.5979 -3.8114 -0.5707 -0.6840 -0.9966 -1.0907 -3.3408 0.8903 -0.8198 1.5153 -2.3362 0.5742 1.1267 4.2401 5.3140 3.3621 -0.4899
2.2213 -2.2210 1.1639 3.2472 0.8785 1.8609 0.6045 -0.3370 0.4911 -1.8004 -1.3709 -3.8232 0.5598 -0.1938 -3.6100 1.5104 -0.6556 -0.4538 -0.1613 -2.2428 1.2075 0.1190 4.1422 -1.7966 4.3727 0.6164 9.8200 12.6151 8.8081 -0.2803
2.1705 -0.0252 0.6924 2.3324 0.6400 0.0080 -0.1380 -1.0559 0.6006 -0.8375 -1.4001 -1.1071 1.5710 0.2529 -4.0788 -2.0214 0.3054 0.3802 -0.0464 -2.8079 1.2527 0.3156 -0.3608 -2.3903 -1.6794 1.3526 1.2836 0.7714 -0.2107 -0.2033
2.9535 0.3961 1.3477 1.7124 0.2665 -1.9616 -0.1451 -0.5927 0.9591 -0.4856 -2.8976 2.3607 2.7087 0.2559 -5.6723 -5.5037 1.5615 0.7449 -1.2545 -3.6768 2.3399 0.0998 -4.7143 -3.3290 -7.5443 2.5424 -7.7192 -11.8586 -9.6385 0.2911
3.5136 -1.3050 2.7682 1.6572 -0.0847 -1.4836 0.9094 0.4802 1.3277 -1.1241 -4.0707 2.5820 3.3434 0.3678 -6.3637 -4.7147 2.1154 1.1309 -2.3683 -2.9147 3.1456 0.4743 -2.1076 -2.9200 -4.0170 2.7845 -4.2081 -6.8524 -5.2381 1.3773
0.7840 -2.1649 3.5733 2.1400 -0.1901 0.4354 1.7700 1.3780 1.3408 -1.3967 -3.4356 1.4667 4.1537 0.7533 -5.0276 -1.5746 2.1479 1.9752 -2.3318 -1.8476 2.1861 1.7200 3.7465 -1.5931 3.1507 2.7257 5.9573 7.6690 6.0865 1.6946
-3.5890 -0.5007 3.1739 3.3831 -0.0800 1.7600 1.7047 2.8717 1.3486 -0.6766 -1.9901 1.5265 5.1134 0.6885 -3.1732 -0.4180 2.0394 2.4718 -2.4238 -2.6659 0.3643 2.3426 4.3336 -1.4799 3.1559 2.6421 7.5195 10.0631 7.4594 0.6591
-2.4918 0.5566 1.9321 4.0116 0.1818 2.6869 1.0148 3.9392 1.4559 0.0494 -1.0365 2.4863 4.8252 0.1946 -2.0025 -1.4574 1.5177 1.9286 -3.9138 -3.9937 -0.4859 0.9187 -1.0946 -2.7849 -3.5505 1.2770 -2.0350 -2.8634 -2.7832 -0.5266
3.9030 -1.6020 0.9471 2.6795 0.6376 2.9997 0.3214 2.2532 1.1653 -0.1757 -0.5666 3.2579 3.0730 0.0852 -1.2718 -1.0375 0.6598 1.0212 -5.0102 -3.2557 -0.0811 -1.2006 -4.8372 -3.4432 -6.9761 -1.0888 -9.3504 -12.2378 -9.7962 -0.9091
4.6563 -3.7188 0.9144 1.2327 0.7709 1.8992 0.0186 -0.6645 0.6566 -0.9869 -0.8664 3.3727 1.6150 0.3379 -1.2197 0.6577 0.3072 0.8007 -3.7787 -1.5460 0.2479 -1.4862 -2.3164 -2.6637 -2.8878 -2.0780 -5.2218 -5.9098 -4.7210 -0.7262
-2.2107 -2.6649 0.9191 1.5781 -0.1028 1.0842 -0.0501 -1.0495 0.5047 -1.4342 -2.1930 2.8662 1.2768 0.2124 -2.1656 -0.4265 0.6346 1.0470 -2.3047 -1.3382 -0.3413 -0.1422 2.0028 -1.7252 2.0970 -0.6432 3.1142 5.5004 4.1702 -0.3790
-3.9734 -0.9935 0.1379 2.3439 -1.2608 2.3881 -0.0263 1.0557 0.5436 -1.0925 -2.7034 2.3393 0.8287 -0.2755 -2.7326 -3.2532 0.5927 0.6782 -2.9094 -1.8810 -1.0085 0.3942 2.1095 -1.2510 1.8064 1.4560 4.5604 6.9859 5.5924 0.0418
2.1586 -0.5881 -0.2053 2.2126 -1.2640 4.1070 0.5595 2.4592 0.3721 -0.3743 -0.7295 2.4558 -0.5717 -0.4918 -1.5552 -2.7171 -0.4933 -0.4653 -3.3275 -1.2057 -0.8725 -0.8547 -1.5571 -0.8120 -1.3797 1.9008 -0.9071 -0.7423 -0.0991 0.4850
3.6803 1.3132 0.9268 1.9111 -0.2518 4.0445 1.8018 1.6007 -0.1921 -0.0139 2.2028 2.4632 -2.3332 -0.4118 0.5485 1.1298 -1.8918 -1.4136 -0.9461 0.4280 -0.5111 -2.5142 -4.0358 -0.3770 -2.1159 0.7560 -5.4201 -6.7402 -4.7281 1.1554
-1.2558 4.9003 2.0389 1.3942 0.4780 3.4175 2.6879 -0.5794 -1.2428 0.4233 4.1000 0.5871 -3.7229 -0.4160 2.5407 4.7301 -2.5618 -1.4444 2.6102 2.0961 -0.7786 -2.8284 -2.0112 0.3119 1.0976 0.3757 -3.8153 -4.6314 -3.1737 2.3249
-1.3246 5.6002 1.5619 -0.1109 0.3708 4.2473 2.4710 -2.4923 -2.3025 2.0630 5.2110 -2.8011 -4.4097 -0.4833 4.5764 7.2435 -2.5219 -1.0499 4.8175 3.7569 -1.5733 -1.7921 2.4998 1.5688 5.3901 1.2808 1.7546 2.4473 2.2196 3.2198
4.1004 1.7957 0.2477 -1.5959 -0.2743 5.3915 1.5597 -3.2440 -2.6247 3.9128 5.6410 -4.8107 -4.4802 -0.5022 5.7222 7.1551 -2.5817 -1.4346 4.9703 4.4865 -2.2661 -1.4571 3.4711 1.8814 5.8191 1.0050 3.9328 5.2778 4.1464 2.3108
5.0859 -3.2826 -0.8173 -1.5659 -0.8028 4.5642 0.3409 -3.1995 -2.1921 3.5989 4.2528 -4.3270 -4.4210 -0.5100 4.3467 1.6186 -3.1109 -2.7002 2.8106 2.6518 -2.5526 -2.8929 -1.4982 -0.2467 0.3943 -0.8916 -1.3639 -1.6341 -1.5165 -0.5240
0.0494 -6.2467 -1.7561 -0.5569 -0.7537 2.6450 -1.1084 -2.9436 -1.4951 1.3285 1.6060 -3.3960 -4.2136 -0.4015 1.7516 -5.2312 -3.7274 -3.2863 -0.5293 -0.7675 -2.9709 -4.0559 -6.2902 -2.8928 -5.6887 -1.8341 -7.9652 -10.6815 -8.7024 -3.2066
-4.4131 -5.4442 -2.5093 -0.0908 -0.6184 2.5421 -2.1179 -2.3046 -0.9867 -0.1841 0.1094 -3.2334 -3.3973 -0.2273 0.6966 -5.3408 -3.8978 -2.3388 -2.0569 -2.5160 -3.9940 -3.1462 -4.2999 -3.3317 -5.2461 -1.5016 -6.9868 -9.4401 -7.8760 -3.7950
-4.8990 -2.5092 -2.6987 -0.2969 -0.8006 4.4224 -2.2956 -1.4555 -0.9065 0.0224 0.1774 -2.5243 -2.4607 -0.3585 0.5600 -0.4113 -3.4352 -1.2517 -0.9488 -1.9838 -4.6536 -1.6567 1.2300 -2.5428 0.3702 -1.9783 -0.4969 0.0571 -0.6292 -3.0208
-2.6884 -1.4883 -2.5699 -0.0992 -0.5900 5.1031 -2.2565 -0.9980 -0.8314 -0.0394 0.0183 -0.6990 -2.1751 -0.8191 -0.9567 0.8798 -2.7898 -1.3926 0.3378 -1.6380 -4.0094 -1.6159 1.9699 -2.7532 2.2809 -3.0910 1.4870 3.5242 2.0144 -2.7649
-0.7113 -2.4826 -2.1982 0.5854 0.1495 2.5352 -2.1208 -0.6989 -0.2182 -1.5305 -0.7536 0.2154 -1.9993 -1.0790 -3.0628 -2.5672 -2.6870 -1.9732 0.2276 -2.0999 -3.1569 -2.6877 -2.7788 -3.2646 -2.6822 -3.1211 -3.6428 -3.4443 -3.3557 -2.8160
-1.3174 -2.2449 -1.3915 0.7936 0.4965 -1.3059 -1.5688 -0.2987 0.5260 -2.8449 -1.4462 -1.3054 -1.2067 -0.8360 -4.0122 -5.0973 -3.0407 -1.6794 -0.6339 -2.1356 -3.2891 -3.4791 -5.8910 -3.0861 -7.6464 -2.4684 -8.3647 -10.2347 -8.5423 -2.1837
-3.4562 -1.2183 -0.7732 0.6971 0.4700 -3.2304 -1.3007 0.0479 0.9528 -2.6695 -2.5589 -3.2704 0.0007 -0.3771 -4.6941 -4.3884 -2.7748 -0.6654 -1.5237 -2.3999 -3.4527 -3.0713 -3.2537 -3.4737 -6.4074 -2.2876 -6.0700 -7.3732 -6.4858 -1.7021
-4.3540 -0.9424 -0.9636 0.9338 0.6083 -2.9256 -1.9012 0.9072 1.4294 -1.8877 -3.8796 -2.7339 1.6037 0.1025 -5.6922 -2.0279 -1.2675 0.4352 -1.9302 -3.6427 -2.5164 -1.3235 1.5225 -4.4742 -1.5592 -2.0184 0.8653 1.8272 0.1219 -2.0035
-3.7162 0.1747 -1.4314 0.7058 0.3593 -2.2519 -2.5937 2.0528 1.8121 -1.4507 -3.9103 -0.2044 3.4730 0.6548 -5.4845 -0.5704 0.5506 1.5449 -1.4082 -4.3951 -1.3644 0.3596 2.2875 -4.5086 -0.3815 -1.3542 2.9197 4.4567 1.8169 -2.1892
-2.3585 0.9381 -1.3068 -0.1387 -0.4626 -2.0481 -2.5638 1.6723 1.4143 -1.3208 -3.1112 1.2106 4.3173 0.8859 -4.1681 -2.2758 1.3089 2.2428 -0.6344 -4.1753 -1.3073 0.1709 -2.1167 -4.1756 -5.0439 -1.4548 -4.5450 -5.6908 -5.7909 -2.1642
-0.1823 -1.8733 -0.4682 0.0940 -0.7658 -1.9323 -1.8360 0.0594 0.6596 -1.6498 -2.8940 0.3515 3.5219 0.4084 -3.6317 -4.9559 1.0056 2.0265 -0.5814 -4.0839 -1.9928 -1.1737 -5.5842 -4.5809 -8.8521 -2.3609 -11.7427 -15.3765 -12.8583 -2.4095
1.9065 -4.4459 0.4471 1.4902 -0.3818 -1.6473 -0.7533 -0.1032 0.3868 -2.4458 -2.4660 -0.5774 2.4229 -0.1425 -3.8048 -3.2693 0.7269 1.5716 -0.8327 -3.6603 -2.0784 -1.2856 -2.5133 -4.2807 -5.6005 -2.3319 -7.0681 -8.8275 -7.7465 -2.1211
2.7604 -1.9259 0.9728 2.1332 -0.2646 -1.0367 0.3139 1.5770 0.4195 -2.9127 -1.1440 0.5212 1.9735 -0.0481 -3.4526 1.8753 0.8814 1.4853 -0.4717 -2.2671 -0.9965 0.0025 3.2189 -2.5314 0.4367 -0.6656 3.7082 5.8943 3.3893 -0.7721
2.8747 1.1638 1.5832 1.9383 -0.2061 -0.3281 1.2612 2.9891 0.5133 -2.7696 -0.3412 2.7496 1.6368 0.2382 -2.7690 3.5919 0.9389 1.0990 0.7305 -1.1032 0.6258 0.7096 3.3375 -1.1449 1.2779 1.2400 5.7850 8.2854 5.2746 0.6323
2.4592 0.5221 2.8377 1.9389 0.4457 -0.4408 2.3198 3.0332 0.7783 -2.6240 -0.5360 4.3831 1.3649 0.2896 -1.9793 0.7369 0.9691 0.4687 2.8445 -0.4002 2.2163 0.5394 -1.6706 -0.6631 -1.9310 2.4035 -1.0744 -1.8155 -1.9536 1.7841
1.5201 0.6329 4.0950 1.2278 0.7810 -1.1122 3.3137 1.9888 0.7046 -2.3988 -0.2951 5.1204 1.7678 0.6839 -0.3721 -0.6296 1.7110 0.7820 5.3063 1.0844 3.8258 1.2089 -2.8919 0.4901 -1.6304 3.5001 -3.4882 -5.6804 -4.1923 3.6321
1.7887 3.2987 4.0728 -0.5188 -0.0506 -0.4943 3.6358 0.7241 -0.0660 -1.3013 1.0631 4.7030 2.1746 1.4223 1.8636 1.8961 2.5441 1.5762 6.5004 2.9523 4.7481 2.7391 2.7718 2.4691 3.8794 4.5571 3.4444 3.6512 3.5574 5.6225
3.6624 3.4924 2.6991 -1.0592 -0.9345 1.3006 3.3293 0.4397 -0.7600 0.5779 2.9527 3.0346 1.1715 1.5565 3.6846 4.6981 1.8780 1.2114 6.0521 3.8823 3.9418 3.0649 7.7600 3.6848 8.5648 4.3860 9.8595 12.6740 10.7838 5.8434
3.6259 1.5859 1.5039 0.1655 -0.5325 1.6906 3.0480 0.7637 -0.8840 2.1577 4.7250 1.2870 -1.1586 1.0968 4.8411 5.4433 0.0939 -0.0515 5.1989 4.0821 2.5224 1.6811 5.6403 3.5661 7.3707 3.2649 7.3609 9.3058 8.0780 4.4186
-0.0714 2.6422 1.4304 0.9022 0.7080 0.2786 2.9356 -0.0765 -1.0545 2.6155 5.5611 0.2493 -3.3291 0.8283 5.4251 4.4733 -0.9681 -0.9056 4.0920 4.2110 2.4480 0.3054 -0.0161 2.9455 2.2962 3.1230 0.3888 -0.9969 -0.2403 3.2624
-2.0621 4.0570 1.5247 0.6612 1.3914 -0.4130 2.7549 -1.6845 -1.4747 2.0457 4.8929 -0.2837 -4.2829 0.7389 5.1509 3.0438 -1.1646 -1.2753 2.7531 4.2331 2.9245 -0.0032 -1.5465 2.5505 0.0102 4.1413 -1.5291 -4.3913 -3.0778 2.9374
2.4768 0.1961 0.9529 0.7629 1.0538 0.5820 2.5500 -2.0671 -1.4744 1.2681 3.6277 -0.8119 -4.2188 0.6683 4.2765 3.7478 -1.6260 -1.4611 2.9989 4.2403 1.8137 0.1595 2.5299 2.4967 3.5738 3.9546 3.2512 2.7363 2.4369 2.7288
7.8816 -4.5720 0.2508 0.9500 0.5340 1.7388 2.3013 -1.5596 -1.0208 1.1453 3.1503 -1.8557 -3.9124 0.8243 3.5691 5.8998 -2.4047 -1.4904 4.9931 4.2744 -0.4387 -0.0240 6.1289 2.5216 7.5831 1.9523 7.5291 10.0142 8.0481 2.5620
6.8465 -2.6104 -0.1388 0.9026 0.6764 2.0535 1.9816 -1.3832 -0.8033 1.6369 3.3275 -1.9060 -3.6854 0.6458 2.9385 4.4894 -2.9797 -1.9325 5.8028 3.5602 -1.8972 -0.8851 3.6291 2.0441 5.2070 0.7971 4.7791 7.0624 5.7540 2.6048
3.5895 2.7343 -0.1427 1.7545 1.3352 1.9092 2.0069 -0.6895 -0.8734 1.5889 3.1180 1.2835 -3.3330 -0.5002 1.6975 0.3464 -3.2901 -2.8807 4.2167 1.6852 -2.4141 -2.3758 -2.6517 0.5929 -1.5090 1.3438 -3.3353 -3.6139 -2.4756 2.4291
4.2569 4.0083 0.7197 2.9994 1.8819 2.0962 2.5456 0.8277 -0.7832 0.5182 2.4432 5.4158 -2.6382 -1.5628 0.1586 0.1645 -2.8882 -3.0551 2.1372 0.1701 -2.4531 -3.4762 -4.9662 -1.1697 -3.9858 1.4023 -7.8069 -8.9791 -6.7334 2.0527
4.7828 2.8699 2.4266 2.7507 1.9146 2.9264 3.1285 1.5509 -0.4509 -0.2851 1.7306 6.0259 -1.5238 -1.2620 -0.8056 3.5525 -1.4385 -1.9666 0.7166 0.5215 -1.4991 -2.8032 -0.7583 -1.9149 0.5372 0.5604 -2.7488 -1.7498 -1.3355 1.9518
1.6711 3.1428 3.9417 1.7949 1.3595 3.0358 3.4513 1.3940 0.0709 -0.4362 0.6489 3.2463 -0.2668 -0.3546 -1.4624 4.4272 -0.2475 -0.9722 -0.3771 1.2397 -0.1741 -1.2058 3.2301 -1.7358 4.7286 0.1709 4.6192 7.6149 5.6746 1.5678
-0.3870 2.8970 4.4404 2.0747 0.6054 0.8236 3.4288 1.8709 0.8007 -1.2739 -0.6134 0.3991 0.6711 -0.0577 -2.3513 2.4121 -0.4180 -0.7734 -1.0670 0.2574 0.0616 -1.1129 0.8531 -1.8325 1.5682 0.2125 2.8612 4.2948 2.7006 0.4595
0.0236 2.4227 3.9194 2.7459 0.1866 -2.0300 2.8076 2.8795 1.5731 -2.3603 -0.7972 -0.5636 1.4695 0.0946 -2.8534 0.5094 -0.5713 -0.5259 -1.3840 -1.1570 -0.1656 -2.2818 -4.2375 -2.1975 -5.2364 0.3854 -5.5727 -7.6916 -6.7653 -0.0890
-0.2644 3.9756 2.9128 2.4442 0.0415 -2.3521 1.9225 3.4664 2.1759 -2.1014 -0.1187 0.3929 2.5125 0.7962 -2.6397 -0.6716 0.5406 0.0411 -1.4059 -0.8254 0.2517 -2.0670 -4.2745 -1.9218 -6.0627 0.8071 -7.5035 -10.2875 -8.2858 0.7254
0.6433 3.5807 2.1791 2.1921 -0.1269 -0.5595 1.7505 3.7520 2.4645 -1.1073 0.0058 1.6331 3.2616 1.4698 -2.2857 -0.0369 1.4488 0.4510 0.2599 0.6084 0.4117 -0.2266 1.1173 -0.9407 0.7467 0.7770 0.3832 1.0732 1.0721 1.7437
3.5596 -0.7597 2.0287 2.7846 -0.0929 0.5153 2.2852 3.7211 2.3176 -0.3097 -0.0835 1.2560 3.0221 1.5351 -1.5106 2.6105 0.8435 0.8069 3.9505 1.3198 -0.0530 0.8351 4.4944 0.0552 6.0430 0.3343 6.9618 10.5229 8.1773 1.8800
3.3683 -2.7170 2.0577 3.0479 0.3811 0.1369 2.4620 2.8993 1.8033 0.5532 0.3999 -0.1677 2.1259 1.2117 0.1229 3.3730 -0.0133 0.9471 6.3486 1.1355 0.3464 0.2598 1.0653 0.4024 2.8067 0.9372 3.8323 5.4778 3.5543 1.3235
1.5458 -0.4256 1.8203 2.3112 0.9541 -0.4674 2.0776 1.9664 1.0986 0.7614 0.7386 -0.6477 1.2736 0.6604 1.3059 1.1283 -0.0399 0.0902 5.0663 1.0553 1.5317 -0.7321 -4.7795 -0.0869 -3.9441 2.2041 -3.4784 -5.8026 -5.5743 0.8274
3.9970 0.5090 1.3534 1.6091 1.2630 -0.1744 1.9016 2.3725 0.4592 -0.2488 0.9259 0.2566 0.8170 -0.0122 0.7734 0.3871 0.0134 -1.0981 2.4156 1.3860 1.4995 -1.3182 -5.3710 -0.7325 -4.6224 2.0177 -4.6953 -7.2238 -6.4036 0.8873
6.6249 -0.1777 0.9314 1.7894 1.3082 1.1718 1.9948 4.0821 0.4419 -0.9986 1.7356 1.6135 1.1000 -0.1774 -0.5103 2.1879 0.1362 -0.7494 1.1593 1.6953 0.5951 -0.9754 -0.1442 -0.5494 1.5725 1.1013 1.4675 2.6239 1.9451 1.4227
4.5358 1.6733 0.8072 2.2285 1.1900 1.9831 1.8842 5.0687 1.1421 -0.4707 2.1737 2.1521 2.0817 0.4268 -1.0834 2.6840 1.1831 0.9531 1.0323 1.9607 1.1680 0.6607 3.7388 0.3896 6.5735 1.8409 6.6699 9.7905 8.1443 2.1444
2.6185 4.1164 1.3601 2.0583 1.2116 0.7299 1.9441 3.9725 1.4298 0.5351 1.3188 1.2640 2.6117 0.9076 -0.9855 1.4116 1.9928 1.6963 1.0887 2.0100 2.5857 1.8983 1.4771 0.9525 4.6003 2.7041 3.6364 4.2941 4.0249 2.5184
2.8871 3.0097 2.2409 1.4295 1.5326 -1.2232 2.5344 2.0679 0.4202 1.2381 0.7452 0.5444 1.5366 0.6242 -0.4913 0.6150 0.8892 0.6468 1.4504 1.3117 2.1024 0.7459 -2.9065 0.8489 -1.2382 0.9593 -4.2946 -6.6830 -4.6493 1.9198
1.7236 0.4468 1.7501 0.7558 1.4563 -1.5644 2.7777 0.9854 -1.0414 1.5042 1.8063 1.0604 -0.7200 0.3078 1.1973 0.2476 -0.9995 -0.7947 2.3344 1.0664 -0.1552 -1.3186 -2.6625 1.2575 -2.9777 -1.3683 -6.4445 -8.1119 -5.6514 0.9808
0.9221 0.1684 -0.3553 0.2687 0.7136 -0.1575 2.3661 0.4768 -1.8163 1.5317 3.7099 0.3131 -2.9237 0.5228 4.2451 0.5078 -2.0755 -1.7617 3.5349 3.0388 -2.0207 -1.8400 1.6370 2.5266 2.0633 -1.4169 0.0513 1.7263 2.3418 1.0073
2.8008 1.2334 -1.4271 0.4836 0.4522 1.6707 2.5050 -0.0139 -2.1092 1.8641 5.2422 -2.4450 -4.5604 0.5060 6.6673 2.2847 -2.8907 -2.5681 4.4095 5.4643 -2.6130 -1.6389 2.9658 3.0408 6.9224 -0.3796 5.3377 8.4881 7.5734 1.6201
3.2984 1.8818 -0.2692 1.1657 1.0300 2.3268 3.2684 -0.1213 -2.4192 2.4606 5.3489 -3.0685 -5.4168 -0.1816 6.3919 3.3655 -3.6221 -3.1264 4.0275 4.9691 -2.0154 -2.4361 -1.3945 1.6407 4.8002 0.1568 1.9600 3.1034 2.8218 1.4647
0.4306 2.8243 1.1391 1.1009 1.4107 1.1372 3.3376 0.2976 -2.3681 2.3862 3.6242 -0.4131 -5.0375 -0.6012 3.9158 1.8648 -3.4534 -3.1306 2.3474 2.0600 -1.0063 -3.4419 -6.0108 -0.5384 -0.6942 0.2600 -4.6631 -6.1436 -4.8486 0.7375
-1.4721 3.2468 1.8133 0.3136 1.5392 0.2454 2.8445 0.8196 -1.6359 1.4414 1.6712 1.2289 -3.6988 -0.2726 1.3219 0.5162 -2.9925 -2.8983 0.3616 -0.1785 -1.0273 -3.2280 -5.4257 -1.7223 -1.6421 -0.3948 -5.5872 -6.9994 -5.3842 0.7195
1.1916 0.9461 2.2985 0.0866 1.8978 1.7387 2.5530 1.2461 -0.7183 0.6375 0.9338 0.9036 -2.3178 -0.1354 -0.4819 1.4312 -2.7252 -2.5811 -1.6141 -1.0654 -1.7255 -2.0521 -1.2692 -1.8263 1.9192 -1.0476 -0.4163 0.5927 0.8623 1.3571
6.5081 -1.7717 1.8999 0.7629 1.8783 3.0414 1.8060 1.7557 0.0363 0.5484 0.4750 1.6805 -0.9201 -0.5557 -1.7262 2.2109 -1.3984 -1.7669 -3.7271 -1.6515 -1.0197 -0.8686 0.6996 -1.8695 3.1418 0.3111 3.7583 6.0654 4.8932 1.2919
9.3346 -0.7640 0.6226 1.8844 1.2965 0.9293 0.7684 2.5209 0.8522 0.6197 -0.2453 2.6508 0.9558 -0.5318 -2.0683 1.3612 0.6360 -0.5535 -4.9901 -1.6682 0.9425 -0.2183 -1.6827 -1.9052 -0.5785 2.5873 1.7070 2.1152 1.2165 0.5376
7.0943 1.7318 0.7939 3.1188 0.9280 -2.2439 1.2461 3.4515 1.5181 0.3451 -0.2157 0.8930 2.6227 0.2217 -1.3297 1.1195 1.0602 0.3061 -4.5543 -0.6924 1.4824 -0.2889 -4.3765 -1.3851 -4.3587 2.4419 -3.7322 -6.0755 -5.2001 0.6540
2.4060 1.1105 2.6480 3.8491 0.7737 -2.6550 2.9325 4.1944 1.5626 0.1080 0.1732 -1.1690 3.1718 0.7791 -0.6326 2.2422 0.2017 0.7463 -3.1273 0.2508 0.0264 -0.3148 -2.4622 -0.6389 -3.1600 0.3053 -4.4213 -6.4380 -5.0095 1.4670
-0.3335 -0.9058 3.0763 3.6597 0.4375 -1.2510 3.1959 4.2161 1.4520 0.2445 -0.2556 0.4486 3.1932 0.9273 -0.6083 2.5789 0.4500 1.4066 -1.5044 0.2742 -0.7429 0.8331 2.7306 -0.2927 1.6727 -0.4823 1.8871 3.1125 2.4758 1.1223
0.5174 -1.0801 1.4519 3.0844 0.1823 -0.7300 1.6599 3.2885 1.7323 0.0677 -0.7838 3.7058 3.4959 1.1047 -0.4916 1.6882 1.5332 2.0098 -0.2912 -0.3646 0.4173 2.1530 4.4016 -0.5171 3.7055 0.1974 5.9946 8.7654 6.3965 -0.3062
2.0191 -0.7502 0.7488 2.7596 0.1320 -1.2879 0.6511 2.3683 1.8082 -0.9064 -0.6620 3.9936 3.6498 0.9593 -0.2140 0.3716 1.7648 1.7346 -0.4455 -1.2451 1.4957 1.7314 -0.0232 -1.2814 -0.6814 0.3376 0.7837 0.9525 -0.0479 -1.1230
0.3150 -0.3708 1.5770 2.7736 0.1012 -2.1646 1.0683 2.8103 1.2611 -1.7045 -0.7809 1.3404 3.3250 0.2063 -0.4885 -1.5030 1.4683 1.1302 -1.1271 -1.9689 1.2154 0.6042 -4.1238 -1.8768 -5.9934 0.5386 -5.6660 -8.6360 -7.5578 -0.8737
-2.6484 1.5782 1.5046 2.8986 0.1930 -2.5864 1.6059 4.0684 0.7701 -1.4371 -1.1970 -1.3333 2.8925 -0.3426 -0.7303 -1.9101 1.1361 1.1703 -0.1784 -1.7333 0.7294 0.9075 -1.5891 -1.1965 -3.9598 1.6151 -2.2180 -4.3663 -4.1384 -0.0513
-1.3439 2.5931 0.3026 2.5288 0.3536 -1.2292 1.4395 4.0628 0.7555 -0.6877 -0.7255 -2.5873 2.2337 -0.0560 -0.1058 1.0548 0.2720 1.3473 1.4894 -0.3959 0.9515 1.8550 4.0641 0.3500 3.1728 2.0172 7.0764 8.4908 6.0415 0.9964
3.7363 -0.2797 -0.1394 1.2181 0.2865 1.3069 0.8279 2.2124 0.7818 -0.0180 0.3383 -1.6510 1.1971 0.5617 0.4975 3.3562 -0.5174 0.9375 1.0432 0.6265 1.2778 1.7387 4.6620 1.0043 4.7671 1.1481 8.9902 11.6518 8.7156 1.5357
6.0304 -4.0454 0.1784 -0.1633 0.1476 1.9867 0.1517 0.1013 0.4827 0.7447 0.4650 1.3576 0.4021 0.6786 0.2959 1.0952 -0.5963 0.2447 -1.0345 0.2885 0.7772 0.7439 -0.5554 0.3161 -1.5542 -0.3049 0.2404 0.3146 0.1763 0.8036
2.8705 -4.3091 0.2724 -0.3546 0.2379 0.2686 0.0134 -0.8872 0.0454 1.1075 -0.3730 3.5383 0.0498 0.1833 0.1899 -2.2079 -0.8517 -0.4310 -2.0370 -0.3064 -0.3714 -0.2288 -4.0937 -0.1788 -6.4414 -2.1992 -8.3991 -10.8307 -8.0267 -0.4083
-0.5386 -0.8233 0.4657 0.1636 0.3629 -0.5965 0.7728 -1.0162 -0.1861 0.5282 -0.7344 2.4154 -0.4974 -0.2895 0.7171 -1.9487 -1.4366 -1.0137 -1.6677 0.0682 -0.7172 -0.3886 -0.9219 0.6048 -3.1969 -2.8710 -6.1488 -7.5675 -4.9771 -0.1353
0.7477 3.8013 0.7633 0.1594 0.3927 0.6081 1.5293 -1.2389 -0.3004 -0.0913 -0.1821 -0.4507 -1.5630 -0.4921 1.0463 0.9357 -1.5909 -1.4594 -1.7108 0.6395 0.3269 0.3727 4.3326 1.4674 3.4358 -0.7480 3.2928 4.4578 4.4281 1.5390
3.9372 6.0674 0.3908 -0.1299 0.6744 1.1640 1.2880 -1.9368 -0.6412 0.1864 0.3239 -2.2702 -2.8615 -0.7666 0.8539 3.0077 -1.8671 -2.2064 -2.5324 0.2995 1.2542 0.4324 3.6014 0.8234 4.6311 1.3830 6.2159 7.2717 6.0147 1.9752
3.9526 4.0418 -0.3321 -0.2311 1.1423 -0.0323 0.4832 -2.9484 -1.1031 0.9790 0.4675 -2.8398 -3.9185 -0.8830 0.9574 2.3638 -2.9353 -3.2492 -2.7146 -0.5226 0.7338 -1.2480 -2.8205 -0.4065 -0.9621 0.6285 -1.0596 -2.8900 -2.5074 0.4496
1.1460 0.2305 -0.7863 -0.6216 1.1532 -0.4885 -0.0532 -3.7345 -1.4132 1.7006 0.9732 -3.3640 -4.4813 -0.5956 1.8115 -0.1289 -4.1127 -3.8090 -2.1037 -0.9494 -0.9230 -3.0402 -6.5849 -0.5012 -6.1313 -1.1129 -7.0395 -10.2981 -8.3326 -0.9203
-0.9763 -1.4999 -1.3195 -1.0348 0.8218 1.3156 -0.2123 -3.4345 -1.6722 2.2826 1.8559 -3.4566 -4.8308 -0.6234 2.8412 -1.4712 -4.8039 -3.9670 -2.2321 -0.8835 -2.7442 -3.3863 -3.6939 -0.2115 -4.9002 -1.4390 -3.3471 -4.3112 -3.6140 -1.4571
-0.0880 -1.1704 -1.8511 -0.7443 1.0405 3.7559 -0.0916 -2.1632 -1.7857 2.6601 2.1313 -1.8080 -5.1057 -1.1048 3.2062 -0.5380 -4.8388 -4.2678 -3.1123 -0.6731 -3.3959 -2.7236 0.6129 -0.8936 0.1048 -0.8565 3.9114 6.1191 4.2513 -1.9446
3.0018 -1.0429 -1.3795 -0.2567 1.7641 4.5426 0.2500 -1.1609 -1.2616 2.5788 1.2878 0.6431 -4.7450 -1.1612 2.3218 -0.0571 -3.9373 -4.2588 -3.5127 -1.0119 -2.2006 -2.0190 0.1104 -2.0412 1.5789 -0.4450 4.5189 6.7923 4.6394 -1.8900
3.9402 -1.3318 0.2640 0.0429 1.9020 2.8250 0.5685 -0.6335 -0.1144 1.7656 -0.3523 1.3019 -3.4106 -0.8471 0.0927 -1.7296 -2.5653 -3.5641 -3.7197 -2.4596 -0.7153 -1.8487 -4.5512 -3.0955 -2.6922 -0.6088 -2.2237 -2.9823 -2.8475 -1.2246
1.3904 -1.3464 1.3847 0.5981 1.0782 -0.1330 0.3870 0.1393 0.8637 0.3032 -2.3802 0.0545 -1.5729 -0.8575 -2.4848 -2.9434 -1.6119 -2.5915 -3.9120 -4.0248 -0.5456 -1.9120 -7.0153 -4.0076 -6.5381 -1.1890 -6.9718 -9.8521 -8.4452 -1.4851
0.4351 -1.7991 0.0536 0.8673 0.0522 -1.5923 -0.8241 0.7913 1.0388 -1.0511 -4.1054 -0.8444 0.0545 -0.8596 -3.7095 -1.6030 -1.1487 -1.5812 -3.1356 -4.1932 -0.9810 -1.2353 -3.4217 -3.9665 -4.2840 -1.6990 -2.8273 -4.0511 -4.5741 -2.9383
2.3280 -2.4289 -2.9487 0.0565 -0.5011 -0.7406 -2.6860 0.5907 0.7231 -1.5592 -4.4742 -1.2227 0.8481 -0.3018 -3.0972 -0.4121 -1.0670 -0.8017 -2.4302 -3.5205 -1.1565 -0.2902 1.6478 -3.0417 0.1679 -2.2989 4.1147 5.8970 2.9743 -3.9917
1.3030 -1.3756 -4.5548 -0.9773 -0.4853 -0.2958 -3.7248 -0.1306 0.5992 -1.4410 -3.6591 -2.6691 0.6614 0.3817 -1.9693 -2.4242 -1.5224 -0.6912 -3.3031 -3.3887 -1.3925 -0.6265 1.0620 -2.7924 -0.6694 -2.8021 3.0688 4.5160 2.3413 -3.8767
-2.7321 0.3462 -3.5532 -1.1927 -0.0574 -1.9533 -3.2159 -0.7089 0.6895 -1.3381 -3.1215 -4.2091 0.3435 0.6434 -1.3198 -5.0243 -1.7966 -0.7513 -3.6847 -3.1389 -1.2984 -1.5988 -3.8587 -2.9928 -5.6300 -1.8854 -4.5195 -6.6614 -6.0035 -3.0378
-2.9512 -0.6525 -1.6788 -1.0553 0.2427 -3.4710 -2.0367 -0.9889 0.6782 -1.1441 -3.0360 -3.8489 0.8226 0.7260 -0.6122 -3.5135 -0.7588 0.1067 -1.7015 -1.4759 0.0340 -0.9106 -4.5918 -1.5726 -6.5961 0.5346 -6.1411 -9.8531 -8.4946 -1.5323
0.7184 -4.0236 -0.3399 -1.3046 -0.2229 -2.7268 -1.0917 -0.9598 0.6358 -0.4597 -2.3774 -2.5193 1.7726 0.9820 0.4268 0.7946 1.0270 1.6992 0.2891 0.6606 1.9217 1.4693 1.4688 1.0649 -1.0434 2.9338 2.9789 2.2379 0.9106 0.3523
1.5831 -5.8666 0.4760 -1.5097 -1.0104 -0.5800 -0.4700 -0.1122 0.6691 0.0567 -1.4177 -1.4761 2.2688 1.1419 0.9612 2.5712 1.6666 2.3950 0.1362 1.1632 2.5415 3.0086 6.3499 2.0401 4.2371 4.1114 11.5782 14.1441 10.2771 1.0957
-1.2317 -4.6931 0.2846 -0.8308 -0.9971 0.8858 -0.4291 1.8016 0.7098 -0.6088 -1.0351 -0.1828 2.2059 0.8862 0.7053 0.7427 0.7683 1.3415 -1.1012 -0.2154 1.3307 2.1995 3.3015 0.6665 2.7899 3.2881 8.0939 9.8894 7.1066 0.0925
-2.6675 -2.8726 -1.3494 0.3537 -0.2867 0.2530 -1.3165 3.2857 0.8485 -1.9628 -1.1606 0.7019 2.1735 0.4954 0.0311 -2.1602 -0.0563 -0.0635 -2.2576 -1.5884 -0.2285 0.3534 -3.1732 -0.9470 -2.7613 1.1762 -2.2362 -3.5521 -3.0354 -0.9864
-1.1523 -2.3255 -2.7929 0.8395 0.2443 -1.3508 -2.1877 2.7987 1.0929 -2.4055 -1.6617 0.3637 2.4024 0.3627 -1.1750 -4.6588 0.1525 -0.0848 -2.9315 -1.4649 -0.6696 -0.4327 -4.3468 -1.4882 -4.7574 0.1924 -5.4342 -7.4527 -5.7149 -0.9738
1.5661 -2.2635 -2.2419 0.3675 0.7578 -0.8359 -1.6128 1.5063 1.0071 -1.2618 -2.1598 0.3935 2.3598 0.4461 -2.3551 -4.6877 0.6247 0.7965 -2.2908 -0.2187 -0.4737 0.2473 0.3942 -1.1919 -1.0857 0.4337 1.0291 1.8182 1.4560 -0.5993
5.0918 -1.9574 -0.3792 -0.4120 1.6118 1.8010 0.1074 1.0467 0.2737 0.4493 -1.4988 1.0678 1.4918 0.5326 -1.8537 -0.5482 0.7055 0.9848 -0.6352 1.1179 -0.4352 1.2722 4.1696 -0.1881 2.9760 0.1504 7.2596 10.7283 8.0395 -0.0290
6.8813 -1.0178 1.1904 -0.8669 2.2441 3.1122 1.3984 0.7266 -0.5093 1.2391 0.1275 0.4482 0.1527 0.5150 0.3000 3.8458 0.6855 0.3361 0.1439 1.8968 0.1710 1.6131 2.4272 1.0224 2.4896 0.3320 5.8967 8.2132 5.9739 1.2825
2.8771 2.1301 1.3201 -0.6023 2.3563 2.0454 1.2543 0.0270 -0.5979 0.7501 0.6930 -0.8019 -0.9673 0.2619 1.8301 3.3946 0.4881 -0.4948 -0.8858 1.5755 1.2341 0.8345 -2.5307 1.0050 -1.5702 1.6095 -0.8772 -2.4408 -2.1277 2.0595
-2.1989 5.4964 -0.8041 -0.0375 2.2154 0.3281 -0.1464 0.0649 -0.5213 -0.2233 -0.4724 -0.8148 -1.8636 -0.2936 1.5507 0.3679 -0.4812 -1.5814 -2.9937 0.2608 0.7044 -0.8145 -4.9207 -0.4441 -3.8396 1.0015 -5.2946 -8.4494 -6.6940 0.6669
0.2171 3.7177 -3.4264 0.1515 1.9326 -1.1938 -1.2353 0.9373 -0.9670 -0.6891 -1.5625 -0.6952 -2.4002 -0.7580 0.6143 0.0021 -1.7196 -2.4652 -4.9606 -0.7573 -1.2865 -1.7731 -1.9696 -1.4629 -0.9543 -1.6565 -1.9367 -2.3415 -1.9660 -1.3581
6.0761 -1.3774 -3.2458 0.5007 1.9533 -1.6257 -0.5393 1.7166 -1.1697 -0.1536 -1.2293 -1.2520 -1.8148 -0.6889 0.1313 1.2203 -1.8802 -2.0283 -5.5700 -0.6921 -1.6749 -0.8355 2.1433 -1.0234 3.2095 -2.1507 4.6371 7.1635 5.5195 -1.3949
6.1467 -2.3468 -1.0601 1.3104 2.6408 0.0665 0.7744 2.3119 -0.6281 0.7536 -0.3914 -0.8560 -0.4224 -0.5123 -0.1658 -0.2462 -0.9661 -0.9752 -4.8323 -0.4724 0.2208 0.3256 1.2820 -0.2603 2.0443 0.0070 4.1142 5.4400 4.5177 -0.0597
2.7783 1.0211 -0.2373 1.3050 3.1311 2.2167 0.6437 2.3814 -0.2905 0.7337 -0.2457 0.2258 0.3592 -0.7670 -0.7187 -3.0933 -0.1101 -0.8093 -4.2554 -0.7473 1.8480 -0.1198 -3.0881 0.0410 -3.1640 1.2755 -3.5483 -5.8291 -3.7705 0.6098
1.9632 3.3148 -0.4936 0.1484 2.6524 2.7386 -0.2671 1.2004 -0.4520 -0.3774 -0.5177 0.1394 0.3225 -0.9344 -1.3251 -2.7623 0.3061 -0.8514 -4.4578 -0.5386 1.8061 -0.7187 -3.3385 0.3970 -3.8590 0.8153 -6.2139 -9.2775 -6.0895 0.8340
2.9164 3.0286 0.1384 -0.7619 1.9187 2.3326 -0.0846 -0.2691 -0.3703 -1.0873 -0.7372 -0.0664 0.2336 -0.6140 -1.6558 0.0195 0.2523 -0.2010 -4.8642 0.4782 0.5374 -0.1718 1.5865 0.7423 2.1409 -0.1014 0.4963 0.9339 2.0272 1.3367
4.2833 1.5556 1.0578 -0.8490 1.6524 1.6645 0.9997 -0.4709 -0.0521 -0.3650 -1.1851 1.1608 0.0596 -0.4297 -1.5000 1.2204 -0.5277 0.0277 -5.2740 0.8325 -1.2051 -0.1538 3.8579 0.4169 6.4709 -1.3556 5.2831 8.9392 8.3012 1.2426
5.8929 -0.2940 1.1105 -0.5378 1.3715 0.0258 1.4430 0.2029 0.1513 0.5585 -1.5996 1.9407 -0.2034 -0.5527 -0.6861 1.0713 -1.2936 -0.5031 -5.1252 0.0686 -1.9737 -1.4145 -0.1557 -0.2275 3.0971 -2.4383 0.1989 2.4597 2.9554 0.2450
5.6483 -1.1356 0.1979 0.1044 0.6240 -1.7987 0.6030 0.5852 0.4585 0.2507 -1.0747 0.6094 0.1250 -0.3580 0.6857 1.7899 -0.8893 -0.3143 -3.8394 -0.0616 -0.7630 -2.0015 -4.3292 -0.2333 -2.9565 -2.0105 -6.8524 -8.4330 -6.2132 -0.3846
3.3486 0.0728 -1.5315 0.8332 0.0211 -2.1166 -0.6048 0.8551 0.7395 -0.4011 -0.0137 -0.9105 0.8188 0.0712 2.0095 2.1340 0.2073 0.7078 -2.8505 1.1583 1.0854 -0.9394 -2.7142 0.4504 -3.1861 -0.3452 -5.5296 -8.0335 -6.1885 -0.0240
1.6183 1.7831 -2.8099 0.8395 0.1884 -1.1234 -0.8491 1.5573 0.4943 -0.1834 0.1182 -0.5707 0.9461 0.0922 2.3670 0.6970 0.8064 1.1827 -3.6180 1.8762 1.7614 0.6001 2.5448 0.9552 2.7379 0.9103 2.3144 2.5766 2.6220 0.5510
2.0712 1.6970 -2.1138 -0.1776 0.6444 -0.1932 -0.2002 2.2738 0.0895 0.5587 -0.6174 0.8404 0.8235 -0.1303 1.6743 -0.0842 1.0597 1.1620 -4.7511 1.0528 1.5997 1.7577 5.0664 0.8256 6.8121 1.4026 7.2407 9.6368 8.4927 0.7897
4.1561 0.1295 -0.5646 -1.1840 0.7295 -0.0957 0.0849 2.5578 0.3175 1.3937 -0.8069 1.8541 1.3041 -0.0335 1.1827 1.6178 1.5030 1.5436 -4.4983 0.2200 1.7896 2.2305 2.0729 0.5064 3.9216 1.8303 4.2162 5.1398 4.4751 0.9175
4.6022 -0.4471 -0.5861 -0.9362 0.6495 -0.7536 -0.5315 2.4711 0.8342 1.7582 -0.2434 2.4313 1.8536 0.1632 1.4194 2.6378 1.6602 1.7963 -3.7788 0.3727 2.0164 1.3799 -2.6438 0.2579 -1.4817 1.4963 -2.9553 -4.8743 -3.7177 0.8064
0.8544 0.4637 -2.0187 -0.1042 0.4599 -1.4597 -1.4021 2.0508 0.5813 0.8003 -0.0205 2.5098 1.6052 -0.0032 1.1676 0.2174 1.2859 1.2932 -4.0507 0.4339 1.3386 -0.0405 -3.0067 -0.0922 -2.2440 -0.2804 -5.2716 -7.1633 -5.0393 0.0745
-2.1350 0.4148 -2.4311 -0.2832 -0.3510 -1.8136 -1.4159 1.7458 -0.3139 -0.3008 -0.5408 1.2776 1.1233 -0.2389 0.0837 -2.2523 1.1892 0.9259 -4.4420 -0.0721 0.5315 0.2471 1.4497 -0.1188 2.1075 -1.1425 1.2318 2.3853 2.7927 -0.3594
1.9500 -0.8909 -0.8142 -1.0807 -1.2269 -1.9519 0.0400 2.0434 -0.7614 0.3796 -0.8174 -0.5462 1.1289 -0.0996 -0.2888 -1.2232 1.6404 1.1996 -3.3593 0.0513 1.3218 2.2258 4.3916 0.6862 5.7617 1.3307 8.5488 11.3054 9.4784 0.9127
8.5863 -0.8976 1.1121 -1.2398 -0.8619 -1.3480 1.7533 2.0325 -0.7157 1.7295 0.0223 -1.0491 0.9625 0.0708 0.5688 0.6526 1.7800 1.2054 -1.4352 0.9700 3.4095 3.1653 1.7294 1.6018 4.1198 5.0382 7.1147 7.4639 6.2279 3.0078
9.4143 -0.1821 1.4848 -1.1239 0.3470 0.0693 1.7228 0.8708 -0.9018 1.6009 0.9895 -0.1995 0.0428 -0.2465 1.2082 1.0002 1.3172 0.6294 -0.3271 1.0281 4.5852 2.3045 -2.3234 1.7146 -0.6482 6.1878 0.4567 -2.4616 -1.6201 3.5448
5.9307 -0.8150 0.3506 -1.0249 0.9569 0.5381 0.2419 0.0557 -1.0296 0.5715 0.4965 1.0041 -0.7198 -0.6826 0.8999 2.5307 0.9903 0.2251 0.1162 0.0078 3.6927 1.7322 -1.6179 1.4801 -1.6856 4.4959 -0.4737 -3.0334 -2.5236 2.2540
4.2744 -0.9993 -1.3664 0.0170 1.0754 -0.4519 -0.7107 1.1429 -0.4720 -0.0538 -0.9777 2.8152 -0.3535 -0.6177 0.2593 4.9279 1.0487 0.2095 0.3230 -0.4636 1.6964 2.1652 2.7587 1.4876 3.1546 2.2953 5.3080 6.5276 4.6662 0.9851
4.7896 0.3412 -2.5962 1.4371 1.4189 -0.8536 -0.7451 2.7653 0.2752 -0.5744 -1.9354 5.1041 0.7879 -0.3593 -0.7325 2.9156 1.1742 0.3448 -0.8125 -0.6176 0.5488 2.3011 4.0790 1.0962 6.8148 1.3450 7.9406 11.5702 9.2861 0.7972
4.3898 0.9012 -1.9454 0.9077 1.3762 -0.2899 -0.6630 2.9183 0.5419 -0.9584 -2.3812 5.8473 1.9070 -0.2817 -2.1717 -2.8723 1.6981 0.8346 -2.5971 -1.8417 1.5035 2.0991 0.2279 0.1789 3.2669 2.0612 2.6354 4.0647 4.2812 1.3321
2.4741 0.6331 0.4128 -1.5425 0.6227 -0.5593 -0.3519 2.0384 0.5422 -0.4972 -2.6745 3.2947 2.5742 0.0809 -2.6866 -5.2790 2.6944 1.5768 -2.1734 -2.9099 3.3185 2.5060 -2.9287 0.0828 -2.4268 3.1389 -3.2093 -5.6390 -3.3501 1.8764
0.7205 0.9193 1.8953 -2.7621 0.3234 -1.4214 0.2451 1.4047 0.5996 0.0797 -2.1728 -1.0866 2.3521 0.5392 -1.6436 -2.3270 2.7657 1.6539 -0.1746 -2.1325 3.2190 2.9176 -0.6561 0.9090 -2.0390 2.4733 -1.4049 -4.0422 -2.7407 1.6479
0.0668 0.4576 1.0047 -1.2441 0.9056 -1.4065 0.1470 1.1250 0.6749 -0.2284 -1.1589 -3.0998 1.2427 -0.0208 -0.8932 0.9521 1.3596 0.6894 -0.0249 -1.0868 1.0213 2.3238 3.3092 0.6902 2.4842 0.3838 4.9324 5.5588 4.1524 0.2882
1.0025 -1.4798 -0.5945 0.6512 1.3225 -1.0877 -0.8453 1.1058 0.8165 -0.6004 -1.1581 -0.9838 0.3718 -1.2190 -1.6485 1.1830 0.3881 -0.2803 -1.4062 -1.7618 -0.3038 1.2991 2.6559 -1.0693 2.7834 -0.6598 6.0470 8.0963 5.5407 -1.3210
4.0885 -2.6245 -1.1261 0.7942 1.2640 -1.1901 -1.5450 1.3204 1.0230 -0.3675 -2.0001 1.8526 0.5708 -1.3948 -2.4874 0.0762 0.8153 -0.3249 -1.6407 -2.8159 0.3592 0.5775 -2.2679 -2.3891 -2.3155 -0.3980 -0.6415 -1.0974 -1.9874 -1.8399
6.1220 -1.4088 -0.9219 0.1833 1.4528 -0.7842 -1.4232 1.0887 0.9585 -0.4240 -1.7689 2.2655 1.0262 -0.6337 -2.1349 0.1339 0.9412 -0.0818 -1.2428 -2.1792 0.5817 -0.1013 -5.3954 -2.2061 -5.9173 -0.7476 -7.1182 -9.9711 -8.6412 -1.2568
3.5363 0.1408 -0.7504 0.1950 1.8756 0.3189 -1.1220 0.3284 0.5178 -0.7855 -0.4287 1.3402 0.9185 -0.4329 -1.1901 1.1886 0.2816 -0.3476 -2.1189 -0.6764 -0.6799 -0.4679 -2.8300 -1.3698 -3.4743 -1.4925 -4.8708 -6.2293 -5.2308 -0.7670
1.3186 -0.8480 -0.8346 0.5417 1.8850 0.7904 -1.0072 0.2305 0.1855 -0.3550 0.0130 0.4362 0.9715 -0.8050 -0.2885 2.1588 0.5216 -0.4234 -3.4616 0.0820 -1.2477 0.3469 2.3571 -0.5421 1.8627 -0.8684 3.8685 5.9233 4.2663 -0.9467
4.3237 -3.2213 -1.3707 0.9679 1.5128 0.0573 -0.8854 1.1200 0.3479 0.4108 -0.4702 -0.5786 1.7668 -0.6621 0.9506 2.4919 1.4703 0.3833 -3.3328 0.5771 -0.4163 1.6154 3.3454 -0.0200 3.4949 0.2247 7.4223 10.0570 7.1662 -1.2157
5.5986 -3.5597 -1.8291 1.4796 1.2447 -0.8508 -0.6145 1.5307 0.6248 0.3603 0.1215 -0.6608 2.3076 -0.0986 2.5336 0.9168 1.2381 1.1340 -1.9731 1.2140 -0.2178 1.4521 -1.3775 -0.2401 -0.3532 -0.4608 0.4122 0.2612 -0.2771 -0.8215
0.3342 -1.9681 -1.3867 0.9655 1.0975 -0.8646 -0.3736 0.4359 0.2748 0.0981 1.3492 0.5515 1.7453 0.0905 3.3274 -1.9591 0.1369 0.8225 -1.1235 0.9273 -0.9727 0.0131 -5.0276 -0.6724 -3.8835 -1.9530 -7.0964 -9.1640 -6.7818 0.1803
-3.1239 -0.6177 -0.8897 -0.9512 0.8874 -0.4417 -0.5536 -1.0956 -0.6283 0.5713 0.7457 0.4346 0.6850 -0.0437 2.5693 -1.8014 -0.3524 -0.0801 -1.3636 0.0333 -1.1851 -0.7037 -2.3667 -0.3739 -1.7841 -1.9281 -4.2735 -4.8565 -3.1175 0.6759
0.0958 0.4614 -1.3750 -1.9717 1.0039 -0.6771 -0.9158 -1.4033 -1.0025 1.2714 -1.0731 -1.8266 -0.2038 -0.1807 1.0196 2.0724 -0.6923 -0.7385 -2.2962 0.1181 -1.3380 -0.5282 2.0738 0.0920 2.8622 -1.5001 3.5301 5.5650 4.3630 0.0163
3.0625 1.4467 -1.6985 -0.7770 1.7767 -1.2332 -0.7239 -0.9149 -0.5618 1.4784 -1.1273 -2.8076 -1.1111 -0.5795 -0.2744 3.2459 -1.6297 -1.0668 -3.9671 0.5952 -2.1395 -1.0236 1.0715 -0.4082 3.1629 -2.4706 3.7319 6.0389 4.5190 -0.7325
2.2852 1.0669 -0.8224 0.0211 2.3178 -1.4579 -0.2620 -1.5451 -0.5236 1.0583 0.4553 -1.2435 -2.1484 -1.2850 -1.0628 -1.2448 -2.0894 -1.2076 -5.4583 -0.1628 -1.8681 -1.9353 -4.3167 -1.4956 -1.6374 -2.9972 -3.7912 -4.1303 -2.7240 -0.7205
2.4149 -0.9258 0.3711 -1.3619 1.7700 -2.0710 -0.1093 -3.0069 -1.2883 0.1621 1.0577 -0.1468 -2.7807 -1.6597 -1.1556 -4.8480 -1.1454 -1.0937 -4.5972 -1.1400 -0.1815 -1.5983 -6.6317 -1.7830 -5.0127 -1.4885 -7.6954 -10.3787 -7.3833 -0.4962
4.2754 -2.8460 1.2203 -2.2974 1.1077 -2.5480 0.3635 -2.9416 -1.6202 -0.0324 0.4634 -0.0695 -2.5362 -1.4754 -0.3696 -1.9328 0.2565 -0.8231 -1.6851 -0.3287 0.3349 -0.2398 -2.7218 -0.7787 -2.0851 0.0253 -2.4611 -3.7075 -2.8338 -0.2283
3.7965 -2.5277 1.7290 -0.7204 1.4634 -0.7803 1.2425 -1.0354 -0.9134 1.6463 0.5897 1.3944 -1.6288 -1.3388 0.6283 3.7315 0.9430 -0.5703 0.3636 1.3890 -0.7063 0.5727 2.2598 0.4764 3.2602 0.0691 4.8337 7.1959 5.2006 0.3863
1.9692 0.2287 1.4424 1.2495 2.1222 1.9092 1.3051 0.9182 0.1723 3.4533 1.8854 3.2639 -0.4821 -1.4011 1.0676 5.7484 1.3119 0.0458 0.9349 1.8564 -0.4823 0.8090 2.3498 0.9593 3.9206 -0.0467 5.3866 8.4356 6.2603 1.1707
2.6830 2.2167 0.4758 1.2778 2.0628 1.7112 0.5204 1.9431 0.9794 2.5577 2.8646 2.8574 0.7421 -0.9746 1.0325 3.1886 1.9685 1.3279 1.8599 1.3342 1.6529 1.3744 -1.1217 1.1927 -0.0259 0.5566 0.0681 0.1709 0.2235 2.1225
2.8737 1.1217 -0.2371 0.0205 1.4197 -0.7516 -0.0513 1.8721 1.1675 -0.0414 2.3331 1.1109 1.6784 -0.0566 0.6163 -0.7730 1.9299 2.3111 3.2137 1.1495 2.9787 1.7403 -2.1436 1.7020 -2.4295 1.0146 -3.1430 -4.9865 -3.2614 2.7940
-1.6688 -0.7211 -0.4286 -0.6123 0.6829 -1.7346 -0.4249 1.0699 0.8956 -1.0652 0.8467 -0.2236 1.8909 0.2309 -0.5842 -2.8203 0.6397 1.9032 3.5558 0.9179 2.1139 0.9185 1.0459 1.3408 -0.4482 0.5746 -0.0627 -0.3236 0.3949 1.8715
-5.7393 -1.0434 -0.3246 0.2286 0.2167 -1.1491 -0.8448 0.9418 0.8161 -0.3708 -0.4485 -1.4801 1.7906 -0.5905 -2.5051 -2.1414 -0.1950 0.8008 2.5179 -0.1845 0.7164 -0.2352 3.8193 -0.5069 2.3887 -0.1751 4.7150 6.6789 5.0539 -0.2350
-4.3292 -0.4188 0.1770 1.6566 0.1257 -1.2477 -0.7909 1.8975 1.0389 0.0057 -1.5031 -1.7769 2.0837 -1.4742 -4.3098 -1.4538 0.5643 0.4915 0.7927 -1.7609 0.4570 -0.2188 1.8393 -2.1883 1.3332 -0.0198 3.9238 5.2043 3.2503 -1.1999
-2.6739 1.1456 0.9331 2.1555 -0.0095 -1.8084 -0.4186 2.2574 1.0947 -0.0327 -2.2723 0.6910 2.3717 -1.5291 -5.3740 -2.8183 1.5911 0.9248 -0.5110 -3.0242 1.2805 0.5951 -3.0423 -2.3538 -3.1589 0.8825 -2.3143 -3.8843 -3.5962 -0.5340
-3.5853 2.5132 1.4006 1.5283 -0.3345 -1.6266 -0.4759 1.0383 0.9021 0.1315 -1.8002 3.8580 1.7994 -1.2739 -5.7424 -3.5431 1.6970 0.8620 -0.6297 -3.1472 2.2865 0.9581 -4.7795 -1.6318 -5.1295 1.2257 -5.2574 -7.8935 -6.2630 0.0747
-0.8262 0.5102 1.5152 0.7497 -0.4216 -1.1073 -0.5950 -0.3713 0.6787 -0.4573 -0.3693 3.8703 0.8527 -1.2262 -5.4767 -0.8398 1.4337 0.3078 0.0593 -1.4679 2.7730 1.1789 -0.9208 -0.6972 -1.2877 1.5482 0.8068 0.5516 0.1964 0.3580
4.7143 -2.6565 1.6848 0.1480 -0.4214 -0.9816 -0.0321 -0.3397 0.5840 -1.7317 0.1555 1.7615 0.8328 -0.8600 -4.5529 2.0420 1.5903 0.6110 0.9149 0.9404 2.8004 2.0455 3.4844 0.4107 3.4428 3.1692 8.7856 11.1888 8.1801 1.4418
3.3343 -1.5408 1.7387 -0.6602 -0.8971 -1.3942 0.5119 0.7534 0.7824 -1.4310 -0.7009 1.3918 1.7138 -0.0229 -3.4342 0.2104 2.0232 1.8244 1.5469 1.9496 2.8155 2.6546 2.4124 1.1322 2.6337 4.2748 7.4558 9.1310 6.9181 2.6084
-3.1135 1.0487 0.9262 -1.5951 -1.6309 -2.5402 0.0262 1.3133 0.9985 0.3975 -1.4363 2.2739 2.1472 0.5197 -2.4640 -4.2964 1.9310 2.4712 1.5381 1.5579 2.7425 2.0506 -2.2370 1.2152 -2.3440 2.8699 -1.3568 -2.7066 -1.5647 2.2563
-3.7808 -0.6942 -0.5576 -2.2447 -2.1993 -4.1879 -0.7884 0.7272 0.5718 0.6441 -1.1003 1.4768 1.4221 0.5847 -1.1271 -4.8127 0.8453 2.1725 1.4754 1.7146 2.3267 1.1954 -3.0360 1.6991 -4.0676 1.2875 -4.4965 -6.7923 -4.5842 1.1765
-1.3291 -3.2448 -1.4855 -2.3475 -2.5741 -4.8158 -0.8305 -0.2106 -0.3346 -0.7068 -0.2216 -0.3278 0.1922 0.6816 0.8379 -0.0669 -0.6424 1.7301 2.4413 2.9483 1.7037 0.9316 1.6252 3.0449 0.4960 1.4580 2.2316 2.5246 2.1901 0.7995
-5.1943 -1.4575 -1.5639 -1.6642 -2.3658 -3.0265 -0.5941 -0.5395 -0.6685 -0.4105 0.7901 -1.4170 -0.5148 0.7924 2.7339 4.6159 -1.6418 1.2599 3.6574 3.9834 0.7376 0.5554 4.9293 3.9945 5.3516 0.8734 7.9888 10.8860 8.3501 0.5163
-10.1625 1.0085 -1.4543 -0.7830 -1.5133 -0.2047 -0.8553 -0.4353 -0.1827 1.3663 2.1323 -3.1740 -0.3518 0.7240 3.9311 5.4161 -1.8675 0.7575 3.4744 4.1263 -0.5454 -0.0435 2.2270 3.7986 3.8985 -1.1715 4.5630 6.4590 4.9761 0.1158
-7.6404 0.0044 -1.1600 -1.1903 -1.1643 0.5285 -1.2023 -1.0124 0.1099 2.0502 2.9347 -5.8758 0.0970 0.7798 4.1000 3.2264 -1.3011 0.8638 1.9686 3.6872 -0.8122 0.0866 -2.2581 3.3848 -1.3749 -1.0295 -2.1363 -3.6540 -2.6560 0.5916
-3.6258 -2.1068 -0.5069 -2.6396 -1.7258 -1.3409 -1.0256 -2.2499 -0.3502 2.0401 1.8005 -5.7890 -0.0359 0.9573 3.1379 0.4028 -0.3050 1.3591 0.3414 3.1860 0.5811 0.7524 -2.1897 3.3186 -2.6412 1.5712 -2.7014 -5.5118 -3.8386 1.1015
-4.5220 -3.0365 0.0935 -3.0132 -2.0220 -3.2730 -0.3129 -2.8952 -0.9438 2.3377 -0.1117 -1.8827 -0.9182 0.8262 2.0940 -0.5787 0.1289 1.1424 -0.5539 3.3157 1.6559 0.8783 2.1019 3.1313 1.8267 2.3772 2.7351 2.4914 2.5813 0.4673
-5.0884 -3.0544 0.2713 -2.2762 -1.7481 -3.5508 0.2793 -2.8933 -1.2501 1.6969 -0.0965 0.8633 -1.8045 0.5721 2.1632 1.3471 -0.1526 0.3530 -0.4512 3.8853 1.0246 0.5729 4.7580 2.9222 5.8932 0.9315 6.6757 9.2011 7.8249 0.1174
-2.4219 -1.2978 -0.3143 -2.4812 -1.8848 -2.8494 -0.2279 -2.8561 -1.5434 0.0152 1.4470 0.1288 -1.7871 0.7190 2.5187 2.7360 0.0786 0.1648 0.1970 3.4766 0.5037 0.6198 2.2625 3.1202 4.6165 0.8040 4.3749 6.0772 5.4676 1.1156
-0.6777 1.5329 -1.4489 -3.5145 -2.3225 -2.4876 -1.4150 -2.3262 -1.6493 -0.7577 1.5160 0.0979 -0.6943 1.0720 1.7237 0.4024 1.1833 0.7058 0.9195 2.1825 1.4604 0.8774 -2.1747 3.2540 0.2688 2.1891 -1.2967 -2.3843 -0.8342 2.0763
-0.6317 1.7726 -1.5925 -3.3651 -2.0106 -2.7876 -1.5009 -1.3531 -0.9931 -0.2521 0.1068 2.2387 0.6761 1.1109 0.5049 -1.7384 1.8246 1.2438 1.9622 1.9501 2.1556 0.9330 -2.4542 2.9506 -1.1025 2.5056 -2.8722 -4.2827 -2.2570 2.1230
-1.0151 -0.3896 -0.3276 -1.9870 -1.1520 -3.0152 -0.3501 -0.7748 0.0302 -0.1235 0.3217 2.7916 1.4213 0.8698 0.6610 0.3294 1.3340 1.7078 3.1748 2.9404 1.4906 1.1897 2.2820 2.8325 2.5990 1.9332 2.8834 4.3347 4.0313 1.9539
-3.2073 -0.9748 0.2932 -1.0704 -0.8077 -2.6119 0.2301 -0.3124 0.3078 -0.8974 2.0663 1.2641 1.5228 0.6610 2.0560 2.7265 0.6238 2.2777 3.3122 3.1858 0.9999 1.7150 5.6411 3.0063 6.2882 1.8126 8.5411 12.0727 9.7235 1.6902
-6.2884 -0.5763 -0.4108 -0.8984 -1.0039 -1.8608 -0.3886 0.4118 -0.1914 -1.2778 2.0235 0.1285 1.5110 0.5487 2.5869 1.5239 0.2866 2.4026 1.6089 1.6472 1.1331 1.4859 2.5747 2.3945 3.9656 1.1392 4.7377 6.3423 5.2865 0.5518
-7.0833 -2.3181 -0.5632 -0.3615 -1.0185 -1.3103 -1.1445 0.8606 -0.2877 -0.7164 0.2022 -1.2567 1.6132 0.4628 0.8878 -0.6899 0.1182 1.7932 -0.9854 -0.9978 0.5107 0.3868 -3.0229 0.5826 -2.3292 -0.7233 -4.5619 -6.7793 -5.0362 -1.2160
-6.1267 -3.8131 0.2493 0.5023 -0.7149 -1.4570 -1.4970 0.9080 0.4079 -0.4417 -0.9727 -3.1907 1.6928 0.2288 -2.4217 -1.3337 0.1782 1.2083 -3.1365 -3.5615 -0.7062 -0.2075 -3.7604 -1.5855 -4.6632 -2.1269 -6.5920 -9.5585 -7.6004 -2.2029
-5.8796 -1.8464 0.7543 0.4190 -0.4948 -2.2517 -1.7592 0.5695 0.8257 -1.4442 -2.0176 -2.9621 1.5956 -0.3981 -6.0051 -1.7619 0.3930 1.0394 -4.8304 -5.4673 -1.3301 0.0649 0.3000 -3.4643 -1.3754 -2.3089 0.1829 0.3349 -0.2346 -2.0554
-6.1218 0.4886 1.0211 -0.7325 -0.5436 -2.6582 -1.9358 -0.2014 0.3858 -2.9651 -3.8551 -0.6700 1.5300 -1.1572 -8.4927 -3.3715 0.4715 0.7850 -6.3374 -6.7140 -1.2991 0.3114 2.2056 -4.4995 0.6418 -2.0429 4.4794 6.9334 4.9108 -1.6177
-5.5670 0.2773 1.4045 -1.5579 -0.6690 -2.1774 -1.8254 -0.3030 -0.1121 -3.4981 -4.6046 0.3042 1.8395 -1.3752 -8.5836 -5.2241 0.8295 0.3888 -6.7925 -6.7134 -0.5295 0.3933 -1.0109 -3.7689 -2.2091 -1.2534 0.6982 1.4302 1.0491 -1.0509
-4.3776 0.2515 0.9823 -1.3000 -0.7175 -1.5871 -1.5830 0.8716 -0.2446 -2.4421 -3.2910 -0.6393 1.8881 -1.0580 -6.5569 -5.1571 1.4176 0.0983 -5.7056 -4.9463 0.7398 0.3872 -4.4404 -1.7673 -5.1075 0.0668 -4.4811 -6.7359 -4.8224 -0.4215
-3.3211 1.7885 -0.4888 -0.5292 -0.7184 -1.1115 -1.3616 1.7220 -0.5283 -0.5868 -1.5621 -1.0651 0.6476 -0.8465 -4.2409 -2.7429 0.9837 -0.3689 -3.8415 -2.4643 0.6789 -0.0220 -2.8197 -0.2969 -2.9865 0.5902 -3.6586 -5.7513 -3.9504 -0.5378
-2.7022 1.6325 -1.9766 0.0288 -0.6535 -0.5351 -1.1913 1.0992 -0.8903 0.6356 -0.6753 -0.2473 -1.0184 -0.7524 -2.3191 -0.6487 -0.3496 -0.8151 -1.6703 -0.4964 -0.8734 0.0137 2.3801 0.5036 2.6077 -0.1154 2.2080 3.2280 3.0163 -1.0806
-2.8022 -1.1090 -2.7496 -0.1756 -0.6404 -0.5584 -1.3511 -0.1742 -0.8159 0.7103 -0.2779 -0.2516 -1.3477 -0.2416 -0.1267 -0.5906 -0.7776 -0.4119 0.3737 0.9308 -1.1361 1.3525 4.9935 1.8151 5.4764 -0.8100 5.8791 8.4257 7.2522 -0.8562
-3.7118 -3.0777 -2.3227 -1.2934 -0.8433 -0.9688 -1.6539 -1.2929 -0.6395 0.7512 0.5731 -1.6107 -0.7145 0.5574 2.1236 -0.8036 0.0435 0.6029 1.2712 1.9049 0.7368 2.5253 2.3736 3.4346 2.4031 -0.4371 2.4179 2.4145 2.7541 -0.1292
-3.7749 -3.1537 -0.4437 -2.1369 -0.8558 -0.1976 -0.9248 -1.6720 -0.7478 1.8326 2.0386 -1.1889 -0.4269 1.0424 3.5850 0.1917 1.0357 1.2399 1.3006 2.5156 2.3546 2.2769 -0.7270 4.5212 -1.6532 1.0840 -3.5284 -6.6787 -4.1361 0.5327
-2.1707 -3.3953 1.5091 -1.4019 -0.3700 1.3185 0.8687 -0.7508 -0.6886 3.2843 2.8146 1.7964 -0.3041 1.1250 4.1384 1.8469 1.7905 1.4527 1.5481 3.1001 2.2322 1.9041 1.2242 5.0454 -0.0151 2.4008 -2.7388 -4.9339 -2.4697 1.2934
-2.6516 -3.2527 1.3757 -0.2470 -0.0972 1.7487 1.3553 0.0637 -0.4204 3.7802 2.1595 2.7320 -0.1524 1.0242 4.1205 3.4427 2.0212 1.6122 1.4579 3.0691 1.0563 2.2845 6.0628 4.9648 5.0764 1.7331 4.5162 6.1219 6.0012 1.2099
-6.5752 -0.7533 -0.8400 -0.8710 -0.5931 1.4072 -0.6367 -1.1494 -0.7473 3.0956 1.3061 -0.3220 -0.5627 0.7837 3.8480 3.4315 1.3527 1.5455 0.5529 1.9822 0.0995 2.4660 6.9395 4.4422 5.8977 0.1464 7.9489 10.7634 8.9970 -0.2393
-7.9653 1.5553 -2.6083 -2.8228 -1.2649 1.1007 -2.4791 -3.1177 -1.7468 1.7515 1.0443 -3.3952 -1.1009 0.5639 3.5445 0.2854 0.6001 1.3132 0.3830 1.3962 0.3438 2.1252 2.6936 4.3322 1.4488 0.3280 3.0607 2.9912 2.8782 -0.8988
-5.1190 1.0903 -1.9998 -4.0629 -1.5349 0.3501 -1.8682 -3.5290 -2.3984 0.5575 1.0162 -4.0726 -0.8511 0.6946 3.4986 -2.9525 0.9654 1.4909 2.0861 2.6112 1.4619 2.0421 -0.4461 4.9391 -1.5857 2.0258 -2.3735 -5.2836 -2.9418 0.5244
-3.9384 1.3098 -0.2982 -4.3287 -1.5540 0.0170 -0.4255 -2.8199 -2.1132 0.8365 1.5913 -3.0900 -0.1407 1.1224 4.0817 -1.2887 2.2235 2.1567 4.6101 4.4218 1.8895 2.6954 2.3347 5.8069 1.5431 3.0713 -0.0768 -1.9734 -0.0879 2.0912
-4.5993 3.4818 -0.0891 -4.0759 -1.4590 1.4638 -0.2879 -1.9393 -1.4150 2.4172 2.4676 -0.4035 0.3652 1.2754 4.7117 3.5011 2.9427 2.6042 5.8539 4.9276 0.9766 3.6644 7.6946 6.2612 7.1052 2.5759 6.7807 8.5045 7.7072 1.9656
-2.9274 2.6844 -1.1727 -2.6696 -1.1903 2.9669 -0.7945 -0.3585 -0.8991 2.6379 2.0414 2.8594 0.8096 0.9293 4.1229 5.1494 2.4719 2.3602 4.7811 3.7910 -0.0493 3.8923 8.3159 5.5857 7.2353 0.7904 7.5726 10.6934 9.0071 0.5918
-1.7825 -0.3064 -1.1200 -0.3919 -0.9040 1.7024 -0.5781 1.3526 -0.3360 0.5725 0.9969 3.8207 1.4907 0.7741 2.8015 2.9378 2.1106 1.9866 3.1706 2.5238 0.4227 3.2898 3.3085 4.4786 1.4305 -0.6342 -0.0866 0.0717 0.7221 -0.2612
-3.8614 0.3463 0.7263 0.9514 -0.7724 -1.5295 0.5378 1.9397 0.6614 -1.0982 1.5289 2.5769 2.2177 1.2481 2.4897 0.9043 2.9606 2.2105 3.2893 2.7554 2.3269 3.1823 -0.0059 4.6330 -1.9687 0.3389 -5.7087 -8.8727 -5.7998 0.6685
-3.8261 1.6928 2.7850 1.0057 -0.6587 -2.8451 2.0926 2.3173 1.6805 -0.9727 2.5237 1.6295 2.6507 1.5849 2.6176 0.5559 3.7767 2.6449 3.8598 3.6844 3.6036 3.8538 3.1201 5.4087 1.5644 2.1531 -1.4636 -3.6287 -1.2041 2.1371
0.2100 -1.3143 3.5261 1.2870 -0.4247 -1.1344 2.8530 3.3511 2.1879 -0.7806 1.1300 1.7324 2.9423 1.1924 0.8542 0.6416 3.5507 2.5552 2.3128 2.9439 3.0485 4.1556 7.8342 4.7138 6.6842 1.7073 6.4096 8.0068 7.8885 1.9436
1.4521 -2.7531 2.6686 2.1884 -0.2663 0.1985 1.6832 3.8300 2.4494 -1.3827 -2.0977 2.4285 3.4413 0.6399 -2.6687 -0.0814 3.4900 2.1125 -0.7516 0.2594 2.2195 3.8462 6.9683 2.8756 6.5313 0.3695 7.3951 10.0380 9.1111 0.5613
-2.5067 2.0359 1.3865 2.5011 -0.3097 -0.4199 -0.2331 3.5566 2.6124 -1.9226 -4.1045 3.3962 3.6133 0.2593 -5.4922 -2.3409 3.8301 1.5791 -3.2087 -2.2935 2.3005 3.2538 0.8985 1.3585 0.8561 0.7577 0.3850 -0.0748 0.9929 -0.2138
-5.3748 6.0740 0.8619 1.5861 -0.3314 -0.5576 -0.9396 3.3834 2.0551 -2.3206 -3.7365 3.7651 2.5978 -0.2636 -6.4895 -4.9096 3.1091 0.8404 -4.3814 -3.1576 2.0143 2.1878 -3.2730 0.1950 -4.0150 1.3123 -5.8045 -8.8961 -5.8782 -0.2582
-4.1454 5.0483 0.7798 -0.2839 -0.4256 0.2660 -0.7987 2.3311 0.6982 -2.7245 -2.4419 2.4337 0.9116 -0.6057 -6.0648 -4.5545 1.7537 0.4278 -4.2507 -2.4819 0.6974 1.2627 -1.0106 -0.3843 -2.1354 0.6120 -2.9471 -4.2917 -2.3574 -0.0039
-2.6628 3.2107 0.8546 -2.2821 -0.9822 0.0426 -0.7723 0.0508 -0.4500 -2.1594 -2.0117 -0.5396 -0.1788 -0.4537 -4.5227 -0.9130 1.3433 0.7754 -3.0885 -1.5853 -0.4555 1.2719 3.5215 0.1878 3.6383 -0.0199 5.0975 7.2606 6.2534 0.1997
-2.5297 1.7910 1.1574 -2.7220 -1.5940 -0.9930 -0.5675 -1.1260 -0.6887 -0.5079 -2.8975 -2.8580 -0.5503 -0.4944 -2.6487 1.6265 1.3812 0.9994 -2.1633 -1.7406 -0.7747 1.2261 3.1357 0.7541 4.5669 -0.6669 6.0787 8.3450 6.5686 -0.6833
-1.8577 -0.3829 0.1620 -1.2107 -1.5420 -1.5427 -0.8421 -0.6277 -0.4312 0.2196 -3.7236 -2.3510 -0.9077 -0.8064 -1.4990 0.4313 0.8300 0.4098 -2.1589 -2.4055 -0.6520 0.1291 -1.8831 0.1960 -0.9218 -1.7643 -2.3679 -3.5438 -2.9471 -2.4213
-1.1364 -0.6783 -2.7324 -0.1877 -1.2375 -1.6521 -2.4928 -0.8345 -0.3668 -0.7558 -2.8633 -0.8371 -1.3165 -0.4689 -0.6874 -1.5334 0.1604 -0.3382 -1.8920 -1.8449 -0.7875 -0.9534 -4.4506 -0.3884 -4.7619 -1.9892 -8.6263 -12.0949 -9.5193 -3.1903
-1.8524 0.6586 -4.6167 -1.3011 -1.4776 -0.9592 -3.7997 -2.0105 -0.6058 -1.0830 -1.0459 -0.9643 -1.2997 0.3485 0.7737 -1.2711 -0.2036 -0.6024 -0.4922 -0.1622 -1.9056 -0.8207 -1.4557 -0.0911 -1.7962 -2.0770 -5.1287 -6.8030 -5.3195 -3.0898
-3.6089 -0.3419 -3.7462 -3.1365 -2.0506 0.7286 -3.2656 -2.2806 -0.9689 0.2101 -0.2900 -1.5139 -1.0326 0.6066 2.4996 -0.0016 -0.6041 -0.5818 0.8244 0.8080 -3.5200 -0.2027 2.1527 0.1507 2.8978 -3.9324 1.1852 2.8623 2.0213 -3.7719
-5.6414 -2.3551 -2.0952 -4.1800 -2.3861 1.8660 -2.2586 -2.2149 -1.3933 0.8815 -0.4596 -1.0780 -1.2186 0.3935 3.6015 0.0112 -0.8863 -0.5815 1.1216 0.9556 -3.7991 -0.3625 0.8973 -0.0177 2.4701 -5.7200 0.7149 2.7691 1.7689 -4.5165
-6.4541 -1.7635 -1.0913 -4.5001 -2.5422 1.7766 -1.7203 -3.3454 -1.6968 0.5715 0.1173 -1.1383 -1.8075 0.4226 4.3521 -0.9298 -0.6496 -0.5784 1.8742 1.9767 -2.2799 -1.0888 -3.6176 0.4630 -1.6870 -4.9775 -5.3991 -6.2847 -5.0593 -3.5698
-4.5663 0.0304 -0.6451 -4.6745 -2.7195 1.7848 -1.1677 -4.7581 -1.7856 1.2087 1.7784 -2.5338 -2.2810 0.6379 5.5938 -0.4910 -0.4821 -0.5782 4.2093 3.9762 -1.1600 -1.4506 -4.9199 1.6812 -2.9789 -3.3489 -8.3945 -11.2424 -8.5796 -1.9277
-1.9342 0.9081 -1.4422 -5.0463 -2.6629 2.3976 -1.1809 -5.4152 -1.8675 2.2897 3.5436 -3.9477 -2.6337 0.8195 7.1361 2.0032 -1.0773 -0.5960 6.5767 5.2878 -2.0634 -1.2466 -0.6332 2.5038 0.8588 -2.9177 -3.7312 -4.6861 -3.5610 -1.3400
-1.7662 1.5404 -3.4599 -4.9369 -2.2137 2.4764 -2.2295 -5.5175 -1.7864 2.1672 4.0230 -4.0216 -2.6859 1.1105 7.4661 3.2174 -1.7515 -0.3885 7.6214 4.9092 -3.5120 -0.8342 3.7932 2.4490 5.3235 -2.5960 3.2429 5.5540 4.1175 -1.3836
-4.0613 1.8838 -4.6881 -3.3002 -1.7795 1.2115 -2.9744 -4.5019 -1.2220 1.2569 2.3224 -2.9654 -2.0403 1.1693 5.7609 0.6164 -1.7168 -0.1292 7.7930 2.8330 -3.8772 -0.9429 2.1557 1.5355 4.6184 -1.8402 2.8612 5.2498 3.7975 -1.6618
-6.2785 0.9647 -3.9010 -1.0555 -1.6513 -0.4384 -2.5637 -2.3303 -0.5445 0.1833 0.0589 -2.3531 -1.2854 0.5021 3.7391 -2.1752 -1.4369 -0.4506 7.0944 0.1488 -3.6867 -2.0418 -3.6269 -0.0966 -1.3625 -2.5308 -5.8393 -6.9080 -5.8452 -2.8389
-5.6520 -1.0349 -2.2210 -0.2569 -1.6322 -0.2979 -1.8542 -0.9477 -0.1233 -0.9789 -0.0311 -2.4442 -1.0420 -0.2584 3.4892 -0.9136 -1.0497 -0.9061 5.5858 -0.7408 -3.0394 -2.7931 -5.3744 -1.1364 -5.5431 -4.2378 -10.7896 -13.9537 -11.8337 -4.0162
-1.8283 -3.0805 -0.8632 -1.0854 -1.6084 2.0268 -1.3498 -1.2746 0.3131 -1.1646 1.6836 -1.8134 -0.6485 -0.1876 4.3623 2.2611 0.0294 -0.4016 4.8245 0.9431 -1.4615 -1.6136 -0.1573 -0.3167 -2.4521 -3.9235 -3.7128 -4.3895 -4.6770 -3.5510
0.8463 -3.4241 0.3211 -2.2763 -1.6038 3.4011 -0.6721 -1.8963 0.7621 -0.0769 2.5956 -0.8191 0.2782 0.3973 4.4096 3.2027 1.0902 0.5646 5.1987 2.6168 -0.6307 0.1611 5.0153 1.2350 3.1718 -2.1869 5.3711 8.2212 5.4862 -2.1631
-1.7455 -1.1929 1.2981 -2.8857 -1.4860 1.1245 -0.1037 -1.7522 0.9047 0.2371 1.7475 -0.8129 0.9873 0.7300 3.0941 1.3134 1.0298 0.7899 5.0928 1.9340 -1.6156 0.3554 3.3960 1.5016 3.1036 -2.3226 3.3335 5.8070 4.2723 -1.4746
-6.2763 0.8737 1.1909 -2.1529 -1.2338 -2.7471 -0.3964 -1.0861 1.0080 -1.4854 -0.3291 -1.0107 1.2269 0.6636 0.7264 -2.0637 0.6764 0.5535 3.9140 -0.4429 -1.8882 -0.2579 -1.8691 0.4244 -1.7534 -3.5527 -5.1620 -5.9505 -4.4152 -1.3907
-6.4139 0.0138 0.0190 -0.2947 -0.9249 -4.0207 -1.3778 -0.3526 1.3306 -3.4306 -2.7827 -0.8114 1.3383 0.1125 -2.3791 -4.6756 0.9792 0.3871 2.1505 -2.7359 -0.4360 -0.1604 -3.2385 -0.8207 -3.6113 -3.4000 -6.6885 -8.6520 -6.4846 -1.5180
-2.7032 -0.9649 -0.7051 1.0994 -0.4135 -1.8024 -2.0670 -0.0412 1.4918 -3.5517 -4.0175 -0.8754 1.1843 -0.9211 -5.0986 -3.7816 1.2024 -0.0950 0.0085 -4.1644 -0.2167 -0.0523 0.0763 -1.9187 -0.3766 -3.1005 -0.3891 0.0725 -0.0870 -2.2802
-0.5331 1.5252 0.0598 1.7351 0.2847 0.7535 -1.7988 -0.2816 1.4605 -2.5010 -3.4111 0.0923 0.7853 -1.8037 -6.1339 -0.5747 1.1942 -0.6373 -1.3734 -5.0141 -1.5992 -0.3909 2.1208 -3.1487 1.9895 -3.3895 3.8662 6.6259 4.2851 -3.2256
-0.9992 4.2208 1.1477 2.5948 0.7391 0.6972 -1.0410 -0.5931 1.4774 -2.0838 -2.4437 2.8166 0.3797 -2.1268 -5.6417 -0.3790 1.6053 -0.5949 -0.7899 -5.7998 -1.5283 -0.3612 -0.6471 -4.1430 -1.1242 -2.4154 1.2028 2.8528 0.6747 -3.3652
-1.2343 2.5617 0.6912 2.8171 0.7353 -0.9349 -0.9092 -0.9700 0.9818 -2.3876 -1.8059 3.5655 -0.4281 -2.1012 -4.5176 -4.0605 1.4256 -0.5988 0.5975 -6.0011 -0.5143 -0.6858 -4.9680 -4.2198 -6.5707 -1.4882 -4.7600 -5.9636 -6.1723 -3.1025
-1.0829 -0.4657 -0.5573 1.3008 0.4482 -1.2045 -1.2534 -1.6444 -0.2045 -2.0592 -0.8189 0.2630 -1.5155 -1.5931 -3.0636 -5.2018 -0.0778 -1.0815 1.3345 -4.5899 -1.2511 -2.1501 -5.0945 -3.3719 -7.2866 -2.8707 -7.3451 -9.2697 -8.1381 -3.0234
-2.1935 -0.1932 -0.0401 -0.5572 -0.0561 0.0495 -0.7250 -2.2478 -0.9093 -0.6521 -0.1550 -2.9824 -1.8502 -0.4979 -1.7125 -0.9535 -1.0258 -0.9712 1.9381 -2.3957 -2.3160 -2.7557 0.0022 -2.1204 -1.6731 -3.8251 -2.6871 -2.4429 -2.5023 -2.4785
-3.1514 1.0861 1.8104 -1.6902 -0.7272 0.7600 0.3398 -3.0336 -0.7805 0.5973 -0.6956 -3.5419 -1.6823 0.3037 -1.3905 1.9890 -0.6434 -0.1240 2.4334 -1.3487 -1.5523 -1.5412 4.2386 -1.0491 3.2779 -2.2098 3.7970 5.9378 3.9999 -1.3465
-2.5977 0.3933 1.8109 -2.5442 -1.1172 0.3501 0.0743 -4.2576 -0.8843 0.3646 -1.2853 -4.0466 -2.1420 0.0874 -2.0894 -1.4074 -0.8228 -0.1237 1.7008 -1.5307 -0.7905 -0.9858 1.8301 -0.7612 1.0316 -1.1282 2.2514 3.1034 2.1374 -0.7254
-2.8304 0.7820 -0.3190 -2.0497 -0.6911 -0.0623 -1.2016 -4.0168 -1.1671 -0.9114 -0.8805 -5.2114 -2.6628 -0.5467 -2.3931 -5.3278 -1.6516 -1.1689 0.5376 -1.7174 -1.4250 -1.9145 -3.6108 -1.0711 -5.2145 -2.2767 -5.4065 -7.5044 -5.7761 -0.9469
-3.7161 3.3916 -1.7738 0.6214 0.3480 0.4134 -1.3200 -1.4454 -0.7170 -1.4452 0.1137 -4.8066 -2.3145 -0.7613 -1.1014 -2.8043 -1.3864 -1.5958 0.9671 -1.2428 -1.8719 -2.0679 -3.5354 -0.6587 -6.5237 -3.2539 -6.4390 -8.6762 -7.0401 -1.0055
-1.0056 3.0623 -1.7510 2.5741 1.0156 1.9266 -0.2234 0.2098 -0.1624 -0.5325 1.5377 -3.5770 -2.1270 -0.5848 1.3763 2.3322 -0.7762 -1.1686 2.4669 0.1160 -1.7830 -1.1603 2.1399 0.8581 -0.4351 -2.8112 1.6035 2.8325 1.7263 -0.4576
3.6955 -1.0205 -1.3200 1.2236 0.6922 3.5610 0.4659 -1.2559 -0.5240 0.6992 3.1049 -3.2486 -3.0092 -0.4109 3.6857 2.5966 -1.4430 -1.2863 2.6802 1.7827 -2.0148 -1.1470 4.9271 1.9435 5.1986 -1.7736 6.6978 10.2052 8.1221 -0.4404
2.8082 -2.2432 -0.3871 -1.5091 -0.2889 3.3509 0.5547 -3.8053 -1.4286 1.2470 3.5691 -2.5898 -4.0862 -0.4140 5.0763 -0.5552 -2.3376 -2.0813 1.3322 2.5021 -1.6204 -2.1125 1.2984 1.7204 3.0787 -0.8678 2.0145 3.3216 3.1634 -1.4840
-3.1743 0.9805 0.5255 -2.9356 -1.2958 1.1646 0.5190 -5.6785 -2.3140 1.2254 2.9522 -0.9307 -4.7285 -0.5182 5.8233 -1.4286 -2.2090 -2.4816 0.3546 2.5489 -0.3701 -2.6327 -2.8713 1.3693 -2.6106 -1.1632 -5.1003 -7.0549 -5.1568 -1.7501
-5.2858 2.9095 -0.3782 -2.9356 -1.7582 0.1171 0.0695 -6.3400 -2.8099 0.9587 2.9060 0.4935 -4.9481 -0.3479 6.2985 0.4546 -1.7910 -2.2056 0.6844 3.4044 -0.2815 -2.3652 -1.6633 1.9784 -2.3605 -2.7515 -5.2470 -6.5113 -4.4614 -0.1414
-2.0923 2.3701 -2.0842 -1.9465 -1.3516 1.5788 -0.3842 -4.5674 -2.2297 0.8090 3.4547 1.4151 -4.1218 0.3217 6.0831 3.2091 -1.4315 -1.5151 1.4746 4.5544 -1.5313 -1.7235 3.3074 2.9208 3.8551 -3.3329 1.1424 3.6557 4.0060 1.2053
-0.6216 2.6648 -1.5358 -0.3887 -0.6505 2.5385 0.1087 -1.6652 -0.9206 1.0525 3.0432 1.6632 -2.2541 0.9378 4.7421 5.2286 -0.5548 -0.4997 1.9864 3.9339 -1.9323 -0.9720 5.4805 2.8842 6.7644 -2.0686 5.2946 9.4103 8.0817 0.6934
-1.7988 2.0986 0.8762 0.1786 -0.6366 1.2512 0.9427 -1.1998 -0.1769 0.7694 1.7887 0.5947 -0.7968 0.8509 3.1082 3.3292 0.3625 0.2730 2.1880 1.6076 -1.0210 -0.5506 1.5872 1.5734 2.0593 -1.3921 1.2639 2.7617 2.1519 -0.3146
-1.9958 -0.7260 2.0395 -0.8949 -1.1702 -0.0915 0.7840 -2.8145 -0.1164 -0.8001 0.9639 -0.7529 -0.6051 0.3485 2.2744 -1.7385 0.4425 0.0277 2.0234 -0.1004 -0.1681 -0.8436 -3.8992 0.0523 -4.1496 -2.3288 -5.6881 -7.4783 -5.9181 -0.9634
-3.4147 -0.1720 1.0144 -1.7285 -1.2653 0.2960 -0.3323 -3.2762 0.0538 -1.8528 0.6663 -1.0423 -1.0002 0.1441 1.9216 -3.1212 0.0688 -0.8429 1.8031 -0.0440 0.1734 -1.4166 -4.0031 -0.6162 -4.5769 -2.8328 -5.4380 -7.1759 -5.8862 -1.8426
-6.0295 4.3308 -0.5761 -0.8596 -0.8103 1.9174 -1.3838 -2.3507 0.4548 -0.8828 0.4846 -1.0069 -1.1004 0.3080 1.0359 0.7866 -0.1188 -1.1826 2.2812 0.3640 0.1553 -1.5153 1.0061 -0.7504 -0.3517 -1.9369 1.8654 2.8270 1.0585 -2.4433
-3.2001 3.8259 -1.3010 0.3906 -0.5490 3.2335 -1.8779 -1.7263 0.7876 0.0518 0.1972 -1.9001 -0.8315 0.2735 -0.8143 2.4459 -0.4828 -0.9489 2.7532 -0.7799 -0.6756 -1.4094 3.1065 -1.5903 0.7860 -1.2870 4.8007 6.8060 3.5953 -2.4572
2.2264 -2.3801 -1.5242 0.4058 -0.6851 2.2118 -2.4433 -1.6554 1.0039 -0.7999 -0.8241 -3.3523 -0.5506 -0.2965 -3.3391 -2.5962 -1.1428 -0.9467 1.3565 -3.4563 -1.9699 -1.8568 -1.5711 -3.4118 -4.5125 -1.9637 -1.8982 -2.4024 -3.3593 -3.1074
0.5989 -3.9813 -2.3355 -0.1931 -0.7953 -1.1931 -3.5782 -1.6342 1.2284 -1.6840 -2.6544 -3.2752 -0.0213 -0.8619 -5.4190 -8.5208 -0.9012 -0.8485 -1.1594 -5.5365 -1.8990 -2.0675 -6.1141 -4.6838 -9.7504 -2.5916 -8.7589 -11.9813 -10.3614 -3.8395
-3.4318 0.7778 -2.8929 -0.3541 -0.8096 -3.5061 -4.0656 -1.3080 1.5691 -1.1468 -3.9241 -0.2847 1.1812 -0.6278 -5.7029 -7.0113 0.8614 0.2614 -1.6949 -5.0514 -0.0502 -0.5709 -3.2697 -4.0085 -7.2947 -1.7563 -6.0040 -8.3156 -7.2736 -2.4014
-0.6240 3.4804 -1.3450 -0.5358 -1.1373 -2.5145 -2.6615 -0.7385 1.8644 -0.3581 -3.4448 3.0420 2.2941 0.2616 -4.0901 1.1118 2.6002 1.8082 0.2445 -2.5198 1.4254 1.7616 3.4412 -2.2146 0.6574 -0.3818 2.3996 3.3626 1.7906 0.3619
2.3801 1.7557 1.2538 -1.1627 -1.8081 -0.7682 -0.6413 -0.7388 1.7080 -0.3177 -1.7669 2.6521 2.3040 0.9342 -1.8182 5.3575 2.8376 2.5147 2.2436 -0.2114 1.5622 2.6466 5.5707 -0.8909 4.7493 0.2642 5.7619 7.8172 5.3051 1.4855
-2.1973 0.3982 1.9797 -1.5812 -2.1980 -0.9083 0.0471 -1.4622 0.9819 -0.5755 -0.3882 -0.5324 1.6496 0.9659 -0.1332 0.1479 2.2664 2.3550 3.1265 0.7595 1.7981 1.8741 1.9658 -0.0120 1.3634 0.7616 1.3892 1.0281 0.6103 1.1002
-7.3276 1.3986 0.7745 -1.3635 -1.9526 -1.7618 -0.2475 -1.8668 0.2021 -0.5265 -0.1465 -1.9567 1.1775 0.6582 0.5519 -6.0331 1.8804 1.8897 3.5534 1.1261 2.1696 0.9341 -1.0800 1.0152 -2.6534 1.4016 -3.6156 -6.2355 -4.1782 1.1771
-6.1498 2.5126 -0.0246 -0.7496 -1.4764 -1.5510 -0.1563 -1.8401 -0.0341 0.0944 -0.4882 -0.8870 0.6768 0.3641 0.6661 -4.0817 1.2244 0.9851 3.9832 1.5459 1.2107 0.5088 0.7640 1.6571 -0.3472 0.9116 -2.2360 -3.5792 -1.9054 1.2859
-1.7202 1.7581 0.0679 -0.3164 -1.2147 -0.7828 0.2724 -2.3289 -0.0097 1.0432 -0.0878 -0.0970 -0.3144 0.0123 1.0159 1.8284 0.0121 -0.3445 4.3801 1.9750 -0.2857 0.5003 4.6645 1.4941 5.2608 -0.4006 3.8174 5.5927 4.6436 0.4380
2.5099 -0.1219 -0.1215 -0.6608 -1.1748 -0.4452 0.3912 -2.9356 -0.3731 1.4794 1.4355 0.1049 -1.3905 -0.4729 1.9713 2.9947 -0.7723 -1.2042 4.4666 2.3923 -0.5545 0.7045 4.8182 1.1886 6.0093 -0.3322 5.9833 8.4694 6.4300 -0.1290
4.5074 -1.0862 -0.5386 -1.2021 -1.1550 -0.4359 0.3778 -2.4087 -0.6889 1.0301 2.8404 0.6130 -1.8912 -0.6854 3.0928 -0.6548 -0.6308 -1.1468 3.9342 2.5086 -0.3891 0.3920 0.3347 1.0686 0.4986 0.6458 0.2636 0.2938 0.2991 0.4658
1.7887 -0.7155 -0.8425 -0.8936 -1.0537 -0.4781 0.3146 -1.2156 -0.2250 0.5772 3.0298 0.0769 -2.0010 -0.2580 3.9585 -3.3191 -0.3678 -0.8049 3.6452 2.0957 -0.9023 -0.6351 -2.8121 1.0852 -3.8560 0.1155 -5.9301 -7.9441 -5.6038 1.1767
-1.9510 -0.0602 -1.7139 -0.4983 -1.0969 -0.6039 -0.1570 -0.7199 0.3634 1.0701 2.5382 -1.2623 -2.1827 0.5142 4.8175 -1.7766 -0.3731 -0.5753 5.0213 2.0070 -0.7955 -0.8448 0.5241 1.9057 -0.9572 -0.6480 -3.0256 -3.7914 -2.2332 1.3376
-0.6430 0.1553 -2.5142 -1.0399 -1.5193 -0.4682 -0.5326 -1.0321 0.1780 1.9443 2.4103 -0.9229 -2.0996 1.0450 5.6669 2.1272 -0.1495 -0.3393 7.1127 2.8136 0.6844 0.6219 6.5385 3.3592 5.3426 0.9912 6.2110 8.2288 6.6428 1.1299
1.8685 0.0764 -1.4772 -1.5784 -1.9933 0.2421 -0.0659 -1.8676 -0.3478 1.9424 2.8473 -0.2155 -1.4585 1.1855 5.9640 4.0458 0.2554 -0.2165 7.5274 3.5839 1.8286 1.9582 7.0341 3.7909 6.6159 2.9525 9.3504 11.5600 8.6487 0.7664
-1.6753 0.9468 0.5559 -1.4442 -2.0252 0.5684 0.6468 -3.0629 -0.6283 1.0107 3.5779 -1.5645 -0.9453 1.1920 5.7634 2.3336 0.3021 -0.2096 6.6680 3.7919 1.5080 1.5873 1.6106 3.0186 1.9488 2.2906 2.4599 1.7091 1.0822 0.9575
-7.2032 3.0312 1.0499 -1.1879 -1.6266 -0.2061 0.7553 -3.2732 -0.7771 0.0868 4.1156 -1.9053 -0.9467 1.0893 5.2846 0.4173 0.0871 -0.0995 6.6635 4.0317 0.6802 0.6116 -1.7740 2.5138 -1.3476 0.8755 -4.1712 -6.8623 -4.9818 2.0131
-5.5077 3.2527 0.0877 -0.4201 -1.0947 -0.2717 0.5950 -1.5434 -0.6068 -0.1651 3.6730 1.2341 -0.7659 0.7214 4.1730 2.1824 0.1134 0.0311 7.2797 4.1624 0.4873 0.7289 1.3311 2.3517 1.3104 1.3378 -1.4943 -2.3628 -1.4320 2.8423
1.7383 -0.0928 -0.0825 0.8914 -0.7976 1.3689 0.7630 0.1141 -0.0637 0.0165 2.3456 3.8671 -0.1434 0.3347 2.8343 5.9773 0.5348 0.2306 7.2576 3.4714 1.2212 1.9380 6.1091 1.8026 5.5090 2.7510 5.8771 7.7279 5.6235 2.6994
4.8742 -3.2124 1.1932 0.8665 -1.0060 1.8367 1.0901 -0.7382 -0.0194 -0.3893 1.4280 3.0617 0.2267 0.2943 2.1175 5.8593 1.0435 0.6876 6.7985 2.3545 2.3519 2.9282 5.6905 1.3354 4.3363 3.2714 7.2104 8.6456 5.7222 2.1547
1.6342 -3.2771 2.3343 -0.5791 -1.1892 -0.1804 0.9977 -2.8501 -0.4875 -1.6441 1.2440 1.0542 0.3564 0.4743 1.3096 0.1242 1.3255 1.0601 5.7252 1.7121 2.7638 2.7346 0.4427 1.1718 -1.6057 2.5056 0.8155 -0.6927 -1.2042 1.4749
-2.2822 -2.1900 2.3860 -0.7198 -0.6120 -1.6303 0.4533 -2.9602 -0.1509 -2.5426 0.5176 -0.2336 1.1450 0.4544 -0.6076 -4.6765 1.6362 1.1881 3.3776 1.3941 2.1565 1.9096 -2.4321 0.5108 -4.9171 1.0185 -4.0274 -7.0324 -5.5835 0.3328
-3.9211 -0.9280 2.5468 0.9351 0.1584 -1.3861 0.3388 -0.5959 1.0091 -2.3641 -1.0734 -0.1654 2.4918 -0.0563 -2.8838 -2.3314 2.1868 1.3930 1.4135 0.6727 1.3437 1.5831 0.9807 -0.6995 -2.0698 -0.1269 -0.7201 -1.8161 -1.9089 -0.7793
-3.5788 0.7973 3.4443 2.0293 0.2522 -1.4249 0.9287 1.5878 1.6027 -1.7395 -1.9449 2.1164 3.1839 -1.0379 -4.3313 3.4145 2.3349 1.2627 1.8638 -0.3751 0.7041 1.6513 5.2211 -1.7303 1.8194 -0.2356 5.1201 6.9643 3.8739 -1.1079
-1.5181 1.3307 3.3431 1.8630 0.1515 -1.8839 0.8903 1.7201 1.3355 -1.4904 -1.3177 4.8537 2.8284 -2.0507 -4.8989 3.7019 1.7620 0.2599 3.0658 -1.2351 0.3593 1.2367 3.2522 -2.4209 0.4325 0.2464 4.2929 6.3099 2.9261 -1.1443
-0.7324 0.8088 1.6919 1.3924 0.4324 -1.9396 -0.3372 0.6712 0.9366 -2.0936 -0.7654 4.8512 2.1534 -2.4356 -5.0550 -2.2643 1.2103 -0.8365 2.5183 -2.0222 0.7358 0.2809 -3.1050 -2.9538 -5.3378 0.5178 -2.6308 -3.5217 -4.2958 -1.5907
-3.5831 1.4671 0.8099 0.7436 0.7008 -1.7404 -1.1373 -0.0440 0.7189 -2.8306 -1.4327 2.3533 1.5511 -1.9365 -4.8795 -6.3061 0.9086 -1.2304 1.2505 -2.7262 1.0836 -0.5130 -5.8283 -3.2658 -8.4860 0.4125 -6.6351 -9.6819 -8.7040 -1.9166
-5.3988 1.6399 1.6919 0.0801 0.7940 -0.6199 -0.4334 -0.4551 0.5777 -2.0599 -1.9207 -0.1654 0.8205 -1.1856 -4.0121 -4.3673 0.2542 -1.3766 0.6220 -2.5367 0.1892 -0.6620 -2.0490 -3.2763 -4.8111 0.1686 -2.9341 -4.6929 -4.7558 -1.6196
-1.8118 -1.0402 2.6221 0.0126 0.8780 1.4041 0.7775 -1.1725 0.2034 -0.3816 -1.0062 -1.3010 0.0198 -1.0815 -2.4304 -1.1727 -0.4527 -1.6298 -0.5745 -1.2861 -0.8706 -0.2626 2.4929 -2.8273 1.0843 0.0673 3.0473 3.8141 2.1485 -1.1874
2.4883 -2.5205 2.7731 0.1796 0.6439 2.1979 1.4378 -1.9149 -0.6169 -0.0407 0.2964 -0.4097 -0.5857 -1.5245 -0.8304 -0.1599 -0.1349 -1.5614 -2.1839 0.1287 -0.1457 0.3304 1.8488 -1.5998 1.6873 0.8089 3.5725 4.3490 2.9727 -0.6176
2.5459 0.6029 2.8547 -0.1017 0.0267 1.0453 1.6369 -2.5315 -1.5191 -0.3376 1.0026 1.7465 -1.0483 -1.7208 0.3547 0.9313 1.0279 -1.1437 -1.9980 1.4075 1.6856 0.8268 -2.1684 0.2071 -2.6012 2.4639 -0.8939 -2.4955 -2.3219 0.6433
1.8224 2.9718 2.9399 -0.6273 -0.4773 -0.3197 1.8183 -3.3101 -2.0653 0.8493 1.2804 2.5359 -1.4896 -1.6101 1.2914 3.2668 1.5464 -0.9988 -0.3856 2.7283 2.2555 0.9680 -2.9950 1.6398 -4.1482 2.9752 -2.7456 -5.2210 -4.5190 1.8550
3.1423 0.2976 2.6769 -1.1305 -0.7458 -0.5855 2.0724 -3.6053 -2.2510 2.2447 1.1940 1.1813 -1.8584 -1.6499 1.9755 4.5621 0.7386 -1.4122 0.4152 3.3604 0.8761 0.6973 1.1259 1.9594 0.1518 1.1358 1.5849 1.6738 1.0981 1.8711
2.5944 -2.4887 2.0985 -1.8105 -0.9806 -0.0742 1.9414 -3.1608 -2.2780 1.6143 1.0830 -0.0504 -2.2852 -1.7636 2.4629 3.4265 -0.6129 -2.0702 0.4447 2.6940 -0.9062 0.2426 4.5124 1.3057 4.2207 -0.3503 6.1147 8.8506 6.9099 1.1956
-1.3556 -1.2606 1.3503 -2.5491 -1.0860 -0.0493 1.2148 -3.3008 -2.5016 0.0730 1.6620 -0.1080 -3.0049 -1.6666 3.0729 0.5291 -1.7104 -2.6907 0.9769 1.4780 -1.4380 -0.5172 2.0868 0.3140 1.9409 0.7563 3.6757 5.1926 3.8837 0.7192
-4.1637 1.1607 1.0046 -2.8884 -0.9361 -0.6607 0.8438 -4.1739 -3.0913 -0.4658 2.6857 -0.2177 -3.9303 -1.4384 3.6093 -2.2652 -2.4654 -3.4030 1.9474 0.7229 -0.9133 -1.8746 -3.3125 -0.2538 -3.8581 2.2151 -3.3744 -5.2960 -4.4781 0.4535
-3.1482 2.8871 1.2251 -2.7003 -0.6846 -0.1349 1.3536 -4.3070 -3.4689 -0.1327 3.5596 -0.7760 -4.7323 -1.2700 3.7947 -1.8817 -2.8828 -4.1985 2.6879 0.8683 -0.7814 -2.9789 -4.4524 0.1226 -5.2781 1.8952 -5.4302 -8.0159 -6.4782 0.7564
-0.9404 5.0902 0.7241 -2.1496 -0.5110 1.9020 1.5994 -3.3931 -3.0121 0.9425 4.1191 -1.3153 -5.0429 -1.2460 4.1063 1.9978 -2.9148 -4.3502 2.8472 1.8460 -1.4289 -2.4910 0.3691 1.0440 -0.3983 1.3519 1.0046 1.4086 0.9514 1.8631
-0.7632 5.8654 -0.7030 -1.5442 -0.4497 3.3855 1.0853 -2.0806 -2.1519 2.6523 3.8958 -2.3155 -4.8594 -1.3664 4.5310 4.1863 -3.0109 -3.6957 2.2467 2.7088 -2.2604 -1.2839 4.3767 1.2983 3.9775 1.3614 7.1137 9.9053 7.4718 2.3804
-2.5267 2.4263 -1.2770 -1.2843 -0.5460 3.4471 0.5788 -1.0359 -1.8288 2.9414 2.8739 -4.0937 -4.8625 -1.6401 3.7854 1.0728 -3.7344 -3.7174 1.3024 2.2451 -3.1043 -1.7667 1.2801 0.0606 1.3251 0.0776 3.4682 4.8233 3.4365 1.0271
-3.7773 -1.8836 -0.9181 -1.3855 -0.8989 2.6844 -0.0359 -1.1988 -2.1843 0.8163 1.9347 -5.3525 -5.1610 -2.0067 1.6939 -3.3683 -4.3313 -4.7839 1.1912 0.8211 -3.0896 -3.4026 -5.2349 -1.7254 -5.6052 -1.6736 -5.2114 -7.3214 -6.2963 -0.9611
-2.9698 -1.9254 -0.8222 -1.5698 -1.4052 1.1675 -0.6110 -2.0122 -2.5914 -1.0759 1.1744 -4.6279 -4.4992 -1.9784 0.2463 -3.4947 -3.2954 -4.5767 2.5898 0.3113 -1.1935 -2.9800 -5.6970 -1.8180 -7.5010 -0.7683 -5.6995 -8.7638 -7.9672 -1.2370
-1.3257 0.7446 -0.0423 -1.7822 -1.7643 -0.3109 0.2314 -1.6010 -2.5982 -0.7831 0.0868 -2.0417 -2.4544 -1.1977 0.0748 0.3389 -1.1691 -2.4265 4.2857 1.2727 0.6191 -0.4823 1.1609 0.0588 -1.3143 1.2542 3.2432 3.4131 1.4388 0.3244
-0.7796 2.0270 1.9220 -1.9222 -1.7691 -0.7656 1.8367 -0.3530 -2.1584 -0.0411 -1.0071 1.0186 -0.5912 -0.3803 -0.9273 3.2294 -0.0402 -0.9179 4.4468 1.8373 0.1460 0.8279 6.0193 1.2189 4.6677 0.4709 8.3603 11.8755 8.7171 1.6047
-0.4261 2.4354 2.9688 -1.9011 -1.3494 -1.4282 1.8453 -0.1597 -1.4513 -0.6986 -1.8049 2.8170 0.0568 -0.3623 -3.5955 2.3040 0.0806 -0.9490 3.3374 0.5410 -0.4288 0.2773 2.9593 0.0214 2.8869 -1.4812 2.4507 4.6179 3.5998 1.4272
1.1371 3.1151 2.5309 -1.9504 -0.7057 -3.0564 0.5220 -0.7109 -0.9468 -1.9191 -2.7529 2.4090 0.2371 -0.8024 -6.1699 -0.6577 0.6842 -0.8173 2.2787 -1.7966 1.0392 -0.2371 -2.8007 -2.1441 -3.0676 -0.8448 -5.8096 -7.9366 -6.5173 0.3907
1.4224 2.5068 2.1992 -1.6379 -0.2968 -3.4998 -0.2058 -0.7264 -0.8620 -2.1706 -3.7843 0.8728 0.6346 -1.0158 -7.4525 -2.6817 1.5064 -0.2721 0.8867 -3.5966 2.2057 -0.3441 -3.7368 -3.5372 -5.0728 1.0968 -5.7186 -9.0025 -8.0153 -0.7318
-1.1757 1.0120 1.7764 -0.0821 -0.0978 -1.7532 -0.4233 -0.5484 -0.6178 -1.8121 -4.0604 -0.1466 1.0784 -1.0058 -7.5943 -3.0220 1.4661 -0.2372 -1.4073 -4.0198 1.3240 -0.5231 0.1280 -3.6742 -1.7743 1.4079 1.6482 1.6201 0.1401 -1.2226
-3.0627 0.6324 0.3326 1.8750 0.3185 -0.0266 -1.0993 -0.5128 0.1348 -2.2497 -3.6134 -0.6642 1.4540 -1.0772 -7.0093 -2.9963 0.8979 -0.4531 -3.3793 -3.4665 0.2148 -0.4915 2.5313 -3.0792 0.7110 0.4079 6.2304 8.7525 6.0588 -0.9646
-2.2160 0.2293 -0.7055 2.3776 0.6552 0.2325 -1.7044 0.2110 0.6790 -3.1466 -3.4053 -0.8151 1.7637 -1.3599 -6.4742 -4.1317 0.5556 -0.6634 -3.8920 -3.2413 0.0855 -0.5481 -0.5058 -2.9706 -2.5686 -0.1906 1.6042 2.2416 1.1375 -1.1421
-0.6849 -1.1918 0.2623 1.2929 0.4001 0.2067 -1.2109 1.3544 0.3554 -3.0681 -3.1460 0.0580 1.5717 -1.7390 -6.2019 -5.3168 0.3948 -1.3167 -3.1122 -3.3504 0.4858 -1.2739 -5.3559 -3.6016 -7.9797 0.4235 -6.6224 -9.7115 -8.3812 -1.8124
1.4646 -0.6011 2.0900 -0.2163 0.1281 1.2378 0.2071 1.3310 -0.4839 -2.3514 -1.4418 0.8903 0.6209 -1.8296 -5.0670 -3.1917 0.2724 -1.9340 -1.8673 -2.0070 1.3244 -1.7827 -5.2216 -3.3856 -7.1657 1.7253 -7.0120 -10.5578 -9.0436 -0.9508
4.3194 3.2673 2.7391 -1.2218 0.4355 2.9839 1.4781 0.3734 -1.0785 -1.8314 1.3293 0.2277 -0.1884 -1.3232 -2.5678 1.6105 0.5755 -1.4334 -1.6601 0.9332 2.2946 -0.8211 0.3531 -1.3858 0.5474 2.5110 1.8202 1.7161 1.1262 1.7100
3.8848 6.2280 2.1002 -1.0911 0.6216 3.6283 1.8265 0.4680 -1.1163 -1.0521 2.8225 -0.2724 0.0094 -0.6030 -0.0921 3.6100 1.4706 -0.2676 -3.4677 2.8289 2.8607 0.9662 4.0432 0.7144 5.5722 3.1175 8.3930 10.6666 8.8370 3.5110
-0.6563 5.2810 1.3534 -0.1317 0.0748 1.8130 1.3267 1.5200 -0.9464 -0.5391 2.0158 1.3361 0.4458 -0.5078 0.9624 1.0376 2.2144 -0.0571 -5.9729 2.2128 3.2650 1.7125 0.9421 0.8469 1.6810 4.5425 4.9072 5.1254 4.5702 3.2009
-3.0561 3.0225 1.1554 0.3865 -0.5970 -0.9264 0.7969 1.3034 -0.9900 -1.1909 0.8930 3.7025 0.3735 -1.0522 1.1883 -1.3624 2.2823 -0.8579 -6.7983 1.1207 3.4823 1.1203 -3.9514 -0.2228 -4.4150 5.5141 -2.3056 -5.2503 -3.8317 2.7866
-0.6194 2.3420 1.3136 -0.0976 -0.9029 -1.7301 0.8920 -0.5228 -1.1414 -1.4936 1.4534 4.4239 0.5250 -1.2324 2.0829 -0.1305 2.0989 -1.0163 -4.8695 1.8697 2.9872 0.7803 -2.9362 -0.0730 -2.9346 4.7836 -2.6919 -5.0879 -3.4703 3.6140
1.7711 1.5945 1.2227 -0.9589 -1.1119 -0.7202 1.1730 -1.7992 -1.1301 -0.5462 2.3986 2.5954 0.9932 -0.6741 3.2455 2.1166 1.6196 -0.2398 -1.3200 3.5272 2.0996 1.1969 2.5508 1.2111 4.2759 3.6829 4.2480 5.2902 4.9518 3.9857
2.1391 -1.4791 0.9203 -1.1715 -1.0664 -0.1905 1.1366 -1.3592 -0.9022 -0.1913 1.6623 -0.8843 0.6620 -0.2251 2.7814 1.8109 0.2857 -0.1802 1.0518 3.5800 1.2456 0.7925 3.9115 1.2072 6.7164 2.8648 8.1773 10.7157 8.7374 2.6957
3.1533 -4.5133 1.3319 -0.2280 -0.2808 -0.4668 1.2093 -0.6600 -0.5937 -1.0651 0.2386 -3.5648 -0.5209 -0.5675 0.6216 0.0923 -1.4115 -1.5898 0.5479 1.7290 -0.0776 -1.2589 -1.6117 -0.4900 0.6023 1.2573 1.9003 2.0639 1.3284 1.2763
3.4144 -3.8478 2.1875 0.8829 0.6727 -0.3848 1.3811 -1.2407 -0.7217 -1.7225 -0.0570 -3.3840 -1.8041 -1.4507 -1.3173 -0.0341 -2.6731 -3.3704 -1.3812 -0.1485 -1.9626 -3.5262 -7.0488 -1.8809 -6.7000 -0.5839 -7.2049 -9.8070 -8.2060 0.5558
0.1626 -0.2508 1.7579 0.9113 0.8849 0.2301 0.9454 -2.2606 -1.5157 -1.5509 0.4272 -0.5782 -3.0911 -2.1181 -1.9902 1.3002 -3.5335 -4.2483 -2.6965 -0.5477 -3.4437 -4.2453 -5.7892 -2.0264 -6.9035 -1.0205 -6.7421 -8.2180 -7.1963 -0.3946
-3.1221 2.9993 -0.0618 0.4755 0.8410 1.1820 0.1137 -2.4586 -2.0889 -0.8599 0.9356 2.4031 -4.0423 -2.0012 -1.7898 2.1401 -3.8932 -4.0013 -3.2460 0.4562 -3.8436 -3.4060 -0.4530 -1.6530 -0.7744 -0.2831 1.8511 4.3240 2.5562 -0.9495
-2.2780 4.1151 -1.4629 0.7108 1.2997 2.6654 -0.3985 -2.4084 -1.8205 0.0254 1.6721 2.3807 -3.9284 -1.4860 -1.2011 1.3434 -3.5337 -3.5067 -3.0240 1.2850 -3.3856 -2.6915 1.0572 -1.5094 3.0245 0.1952 5.0281 8.7241 6.5853 0.0400
0.4885 2.8303 -1.7205 1.3107 1.5933 4.0908 -0.5547 -2.1928 -1.4003 0.6535 2.4061 -0.8005 -2.9647 -1.3714 -0.6846 -1.5745 -2.8872 -3.5107 -1.5900 0.4928 -2.5181 -3.1560 -3.4653 -1.7733 -0.6352 -0.0564 -2.2463 -2.0604 -1.1093 1.1749
1.1704 0.8924 -0.9912 1.7705 1.1089 4.0444 -0.0838 -0.6216 -1.2001 0.7567 2.2140 -2.5556 -1.7885 -1.4685 -0.9357 -4.8172 -2.0540 -3.4540 -0.2146 -1.0263 -1.5171 -3.5931 -7.5372 -1.8822 -5.9054 -0.0629 -9.3354 -12.5293 -8.9825 1.3322
-0.1328 1.4212 1.4725 2.1740 0.6133 2.5208 1.6695 1.2376 -0.7709 0.1878 1.0662 0.2601 -0.5206 -1.2792 -2.2558 -4.2798 -0.7293 -2.6546 -0.5162 -1.4073 -0.6745 -2.7409 -5.1714 -1.1153 -4.4579 0.9573 -6.1221 -7.7629 -5.1549 2.0387
-0.6689 4.0763 4.9849 2.1573 0.7848 1.3488 3.7102 1.0593 -0.2697 -1.1699 0.0894 3.8945 0.4745 -1.2984 -4.4256 -0.4152 0.4261 -1.6957 -1.3863 -1.1141 -0.2393 -1.4847 0.4436 -0.0391 1.8619 1.7919 2.8685 5.6515 5.4583 3.6296
0.8974 5.1229 6.3253 1.4748 1.4346 1.0828 3.7676 -0.1846 -0.1302 -2.6172 -0.4636 3.6791 0.5488 -2.0066 -7.2408 0.5139 0.5592 -1.4412 -1.3152 -2.2113 -0.1079 -1.0696 1.0554 -0.2434 3.6941 1.2420 5.5859 9.7140 8.5894 3.9769
3.4626 3.9189 4.7078 1.1724 2.2475 0.3841 1.9118 -0.0423 -0.0795 -3.1508 -1.4348 1.4922 -0.0591 -2.9595 -9.9992 -2.5861 0.0243 -1.9778 -1.3763 -4.8323 -0.1778 -1.5049 -5.0227 -2.1853 -1.9387 0.6759 -1.2647 -0.5703 0.1145 2.6866
5.3071 3.2337 3.4641 2.3373 2.7749 -0.2918 0.9377 1.1889 0.1185 -3.0455 -2.1176 0.9871 -0.4660 -3.6470 -11.0181 -3.1391 -0.4679 -2.9172 -2.1047 -6.5143 -0.6081 -2.3747 -10.1277 -4.1350 -7.1974 1.0825 -8.4264 -11.2371 -8.8744 1.5718
5.6036 3.6929 4.3219 4.0661 2.5727 1.0933 2.0920 1.8713 0.2796 -2.9307 -0.9987 1.0643 -0.4166 -3.7944 -9.3357 0.5862 -0.5816 -3.5898 -1.4991 -5.2906 -0.9545 -2.7764 -7.6360 -3.9934 -4.5816 0.9284 -6.3479 -8.2486 -6.8291 1.3497
4.7188 3.5416 5.1625 4.2749 1.9541 3.4052 3.4391 1.6852 0.4498 -1.9977 0.8364 0.7658 -0.1874 -3.0508 -6.1595 2.9222 0.0215 -3.2299 1.1948 -2.2646 -0.2536 -1.5509 -0.8480 -1.9352 2.4422 0.1915 2.0426 3.5911 2.7427 1.7895
3.5013 2.4853 4.5104 2.8204 1.4852 3.3260 3.3772 1.1770 0.6428 0.0933 1.5272 2.5595 0.2082 -1.5633 -3.2388 2.1364 1.1777 -1.8076 4.3231 0.0792 1.2703 0.6819 2.1543 0.1036 4.7772 0.9430 5.4468 7.9558 6.5389 3.0228
1.8019 2.3752 3.5211 1.6737 1.1137 1.3060 2.7792 0.6041 0.3248 1.2964 1.9163 5.4740 0.5580 -0.3436 -1.0458 1.8987 1.8276 -0.4748 6.7012 1.1741 2.1588 1.8461 -0.4444 1.2518 0.8032 2.3073 0.4602 0.6361 0.8216 4.3646
-0.6479 4.1665 3.2601 1.4756 0.7018 0.6923 2.8080 -0.1636 -0.6870 0.7683 3.1895 4.9562 0.2339 -0.1066 0.5747 3.1906 1.3122 -0.3782 7.9560 2.1555 1.8097 1.4259 -2.8909 2.0477 -2.4494 1.6483 -4.2735 -5.9660 -4.4628 4.3897
-1.8601 5.2909 3.6166 1.0758 0.3978 1.6047 3.3805 -0.6647 -1.3958 0.9083 4.2438 1.7460 -0.3535 -0.1623 1.5952 4.3475 0.5819 -0.8685 8.1005 3.3767 1.3349 1.0045 -0.5408 2.7311 0.0557 0.2338 -1.1650 -1.7193 -1.2411 3.0526
-0.2919 2.9508 4.6390 0.3403 0.0665 1.5755 4.1965 0.0830 -0.9545 2.0980 4.0773 0.9324 0.1412 0.3619 2.1177 4.9121 0.9857 -0.4728 8.1551 3.8712 1.6816 1.5390 3.7323 2.9939 5.0361 0.8929 6.0135 8.0213 6.1159 1.8275
1.2863 -0.4215 5.9324 -0.0208 -0.4244 0.6372 4.8462 1.5377 -0.0805 1.6016 3.5605 2.9394 1.5010 0.8799 2.3659 4.0685 1.9262 0.3343 8.3672 3.0824 1.7337 1.7332 3.3701 2.6289 5.3904 2.1363 6.8288 9.4601 7.1214 1.6590
0.3006 -0.6673 5.6432 -0.1217 -0.6476 0.2585 4.4458 2.0714 0.1451 0.0101 3.7127 3.5742 2.0277 0.6441 2.4295 0.7788 1.6146 0.1515 7.2939 2.2443 0.2633 0.2782 -2.0559 1.8580 -0.3580 1.1143 -1.6468 -1.3289 -0.8015 1.9939
-1.1694 1.2604 3.2049 0.0026 -0.4108 0.2567 3.1521 1.8709 -0.2259 0.3206 4.4068 1.0357 1.3598 0.2986 2.3590 -2.5009 0.1048 -0.4887 4.5259 2.7550 -1.4266 -1.5362 -5.1778 1.3730 -4.8024 -0.6847 -8.7209 -10.6458 -7.3339 1.8179
-1.3785 2.0023 1.5050 0.8526 -0.1724 0.8434 2.6007 2.0895 -0.5819 1.5226 4.8202 -2.5438 0.4062 0.2634 2.1108 -1.7246 -1.2046 -0.7311 1.3010 3.5804 -2.1068 -2.0759 -2.0930 1.2565 -1.6273 -0.9080 -5.0573 -6.0065 -3.5809 0.7251
-1.2292 0.6764 2.8294 2.0521 -0.0548 2.7608 3.3994 2.1744 -0.5510 1.3465 4.3436 -4.5066 -0.7380 -0.2149 1.4343 2.2152 -2.1646 -1.4899 -1.2525 2.7755 -2.9276 -2.4878 1.1055 0.4397 4.0800 -0.9664 2.1091 3.7769 3.4860 -0.8181
-0.4306 -1.7568 4.9280 2.4893 0.2169 3.7960 4.0291 1.2248 -0.1271 0.7580 3.3120 -3.6520 -2.0783 -1.0563 0.1792 3.7889 -3.0886 -2.9697 -1.9406 0.7455 -4.0902 -4.1164 -1.7623 -1.2888 3.1184 -2.2172 0.5354 2.3979 1.8484 -1.6417
0.2562 -2.5253 4.9796 2.1024 0.4279 1.6366 3.4412 -0.0355 0.2397 0.4170 2.5768 -0.5381 -2.6289 -1.1707 -1.2721 1.4753 -3.3046 -3.6000 -0.3384 -0.5457 -3.9759 -5.5581 -7.3754 -2.4172 -3.4767 -3.2645 -7.7229 -8.1878 -6.5262 -1.1933
-1.9387 0.9282 4.3502 1.9024 0.3371 -0.9734 2.9022 -0.4467 0.2040 -0.5037 2.5703 2.6947 -2.0260 -0.5883 -2.0167 0.4757 -2.4020 -2.9259 1.5140 -0.0023 -2.5134 -5.1171 -8.4209 -2.0133 -6.2273 -2.9373 -10.3980 -11.7865 -9.3443 -0.3256
-4.1390 5.2199 5.2725 2.0416 0.3769 -0.3284 3.7927 0.3446 0.1096 -0.9574 3.4505 4.0973 -1.0560 -0.1188 -1.4390 3.1691 -0.8894 -1.9250 2.0111 2.1643 -0.7611 -3.1913 -3.6013 -0.6789 -1.2773 -1.1385 -3.1297 -2.3637 -2.0830 0.5244
-0.4835 4.7799 6.7622 1.9298 0.8880 2.2445 5.3105 1.9469 0.4556 -0.0365 4.9376 4.5197 0.0986 0.2994 -0.3427 4.8220 0.8372 -0.7960 2.4730 4.4162 1.1677 -1.0340 1.5241 0.7819 5.0708 1.6618 5.0442 8.0699 6.4452 2.0119
6.1097 1.7267 7.4121 2.1140 1.5262 3.1886 6.0037 3.5889 1.3267 0.4780 5.5446 6.7623 1.8148 0.9721 -0.6580 3.0404 2.6576 0.6336 3.4612 4.7922 2.9667 0.6426 1.5660 1.6817 5.8459 4.0231 4.2150 6.4513 6.1342 3.9172
8.4875 1.8598 7.6498 3.0407 1.7491 1.6585 5.7253 4.7125 2.3073 -0.3897 3.8232 10.2480 3.4338 1.4110 -3.3672 1.2483 3.9496 1.6339 2.9933 3.1596 3.6343 1.5785 -2.3076 1.3424 1.8656 5.0789 -3.0769 -3.7591 -1.2766 5.0029
7.0673 4.0563 7.4703 3.5145 1.4360 -0.5972 4.8790 4.9363 2.6104 -1.5797 0.5727 9.9160 3.7570 1.0543 -7.2899 0.8595 3.8065 1.5232 0.6071 0.9955 3.0995 1.6914 -3.7843 -0.1124 -0.8088 5.1774 -5.5259 -7.5599 -4.6713 4.6930
6.1913 3.9111 6.5603 3.2523 1.1813 -1.3622 3.9166 4.1496 2.0611 -2.4971 -1.5875 4.3245 2.8469 0.2470 -10.1353 0.4227 2.4900 0.8093 -1.2539 -0.7848 2.4433 1.3377 -0.0864 -1.5412 1.2627 4.6063 1.0946 0.8728 1.1165 3.6089
6.2281 1.9752 5.9320 3.5691 1.6014 0.0955 3.6089 3.3064 1.5420 -2.3999 -1.2691 -0.4755 1.8125 -0.2720 -10.4794 0.1327 1.3150 0.3035 -0.8138 -2.0028 2.3130 0.9695 3.4711 -2.0013 4.8877 3.9145 7.9184 9.8952 7.8243 2.7766
5.0063 1.0376 5.9213 4.3650 2.2207 1.8473 3.8134 3.2538 1.5496 -0.7013 -0.0268 -0.1537 1.1653 -0.5558 -8.9119 -0.1288 0.6420 -0.1876 1.0570 -2.5919 2.4900 0.2664 0.9074 -1.8565 4.0661 3.8046 5.4360 6.4747 5.2231 2.3374
2.2667 1.7834 5.5271 4.3879 2.1598 1.5857 3.6283 3.1300 1.6423 0.6855 0.4622 1.7610 0.8027 -0.9336 -6.7115 -1.1660 0.2005 -0.8253 2.7960 -2.3754 3.1393 -0.7090 -4.6985 -1.5053 -0.8161 4.1774 -2.4673 -4.6452 -3.4143 2.1705
0.4792 3.5831 4.9976 3.5330 1.6365 0.2883 3.4629 2.0325 1.6403 0.6575 1.1685 1.1829 0.8410 -0.8678 -3.9108 -1.0510 0.5675 -0.6247 4.2596 -0.7291 4.4235 -0.3327 -4.6568 -0.0717 -1.7185 5.0333 -3.3636 -6.5806 -4.7868 3.2327
0.9648 4.8266 5.0412 2.2618 1.3172 0.8306 3.8727 0.5238 1.6109 1.3460 2.9230 -0.5014 1.0438 -0.0867 -0.4923 1.8073 1.6024 0.5190 5.7339 1.9329 4.9631 1.9160 1.9985 2.2809 4.2665 6.2184 5.3960 4.9859 4.5026 5.3470
1.7115 4.1139 4.6418 1.0649 1.0886 3.1038 3.7175 -0.4489 1.3082 2.5925 4.2621 -0.2116 0.8011 0.5235 2.0944 4.7019 1.9016 1.1668 6.4220 3.4249 3.6601 3.6997 6.5680 3.4322 9.0189 6.2636 12.2346 14.8036 12.1116 6.1737
1.3707 2.5422 3.2635 1.0738 0.8909 4.2637 2.7053 -0.1581 0.9258 1.7475 4.5292 2.3809 0.4486 0.5723 2.7493 4.1722 1.5276 1.0858 6.0385 3.2214 2.2021 3.3359 3.9320 3.0541 6.3393 4.8640 8.0574 10.0196 8.3582 5.2544
1.0295 1.7291 2.4320 2.4484 1.1543 3.5030 2.4858 1.1774 0.9420 0.3891 4.6966 4.6020 0.7587 0.6044 2.2070 0.7303 1.7784 1.1530 5.8531 3.4603 2.4802 2.1875 -0.8175 3.1410 1.1218 4.0659 -1.2237 -2.2846 -0.5043 4.7412
1.1095 1.1838 2.7822 3.1888 1.4192 2.5995 3.1911 1.8346 1.0390 1.4764 4.7238 3.8880 1.4480 0.7004 1.7524 -1.5655 2.3590 1.1193 6.1970 4.5851 3.3008 1.9030 -0.9694 4.0493 0.8302 4.3971 -3.5383 -5.7047 -2.3424 5.0527
0.9625 -0.1446 2.9732 2.0183 0.6979 2.4505 3.1713 1.2686 0.7905 2.7435 4.2110 2.1856 1.8110 0.5956 1.9587 -0.4371 2.2001 0.7575 5.8592 4.5839 2.7730 2.2383 2.9866 4.4550 5.1476 4.1617 3.1679 3.7129 4.8821 4.6524
0.9665 -2.3335 2.4016 0.3587 -0.5733 2.3545 2.3518 0.9119 0.4489 1.5188 3.9769 3.1168 1.6905 0.3439 2.7298 1.0770 1.5591 0.7622 4.8330 3.2869 1.6188 2.2969 5.0683 4.2076 7.4831 3.2003 9.0801 12.8634 11.3857 3.4769
1.7323 -4.4454 1.3562 -0.1993 -1.0720 1.8646 1.5355 0.6422 0.1366 -0.0039 4.2987 4.3144 1.1245 0.0399 3.4640 -0.5609 0.8922 0.8241 4.1860 2.5383 1.3431 1.5666 1.6488 3.6911 3.7648 2.6213 5.8181 8.7902 7.9319 2.5713
1.6323 -4.4529 -0.6014 0.1255 -0.5289 1.4091 0.0832 -0.5517 -0.1606 0.3551 4.0279 1.4144 0.3182 -0.1052 3.1377 -3.4318 -0.0740 0.1807 3.6578 2.4171 1.5627 0.0605 -3.8593 2.5854 -2.2637 2.1320 -2.7199 -3.8619 -1.9924 1.8863
-1.1285 -1.7733 -2.8331 0.3054 0.2149 1.4638 -1.9201 -1.4085 -0.1162 1.2044 2.7987 -2.8851 -0.3254 0.1885 1.5071 -3.1356 -1.1097 -0.3497 2.7022 1.7613 1.2027 -1.1001 -4.8729 1.3730 -3.2296 1.3290 -5.2899 -8.1766 -5.5779 1.2895
-4.1197 0.5290 -3.1159 -0.3005 0.3074 1.5807 -2.4580 -1.1462 0.0053 0.8746 1.6276 -4.2266 -0.8826 0.5629 -0.0329 -0.2408 -1.5841 -0.0798 2.1623 0.9994 0.3502 -0.6753 -0.5480 1.1499 1.9091 1.1711 1.3541 1.1749 1.4925 1.5975
-4.0679 0.1612 -1.3505 -1.2878 -0.2753 0.6370 -1.1462 -1.3276 -0.4962 -0.2342 0.6730 -3.6340 -1.5581 0.3588 -0.6479 0.1672 -1.2913 0.0577 2.2761 0.7925 0.2075 0.8026 2.6591 1.4581 5.5370 2.1579 7.6965 9.8900 8.2173 2.6083
-2.7700 -0.4740 0.5556 -1.5788 -0.6932 -1.3100 0.1391 -1.9045 -1.1318 -0.8410 -0.6683 -1.8157 -1.7421 -0.2170 -1.4292 -2.4195 -0.0178 -0.1176 1.7443 0.5574 1.9357 2.0596 0.6381 1.4721 2.5038 3.6008 5.6812 6.1320 5.2276 2.9616
-3.0092 0.6797 2.1775 -0.9469 -0.4681 -2.5397 0.8305 -1.0148 -1.0215 -0.8506 -1.7198 1.9198 -0.9174 -0.3705 -2.7500 -2.4831 1.8792 0.4643 0.4827 0.4031 4.7888 2.9454 -2.3027 1.9032 -1.6395 5.2071 0.3794 -2.2204 -1.2859 2.9036
-3.0454 0.9044 3.5330 0.0102 -0.1800 -2.2003 1.6051 0.9696 -0.5424 -1.3593 -1.9190 4.2506 0.2936 0.0129 -3.6373 1.1218 3.0109 1.6646 0.2504 0.9100 6.4644 3.7851 -0.3818 2.9272 0.4619 7.1586 1.6191 -0.9783 -0.1974 3.6663
-0.5406 -2.1264 3.5361 1.0932 -0.2413 -1.4210 1.9843 2.0717 -0.1814 -2.1026 -2.2649 2.9926 1.1389 0.3917 -4.3440 3.0660 2.8421 2.4439 1.5728 1.0213 6.1712 4.3749 4.7668 3.0831 6.1139 8.4243 8.9853 9.2086 7.6839 4.5697
2.9085 -5.2901 2.1999 2.0053 -0.3305 -1.2131 1.2928 1.8982 0.2318 -1.9172 -3.2174 1.6950 1.4539 0.3509 -5.7996 1.0907 2.1620 2.5880 2.5157 -0.4909 4.9662 4.0651 6.1409 1.7029 6.9182 7.2838 11.9704 14.0324 11.1273 4.2282
4.1780 -4.5922 1.0630 2.0154 -0.3965 -1.9630 0.2022 1.5196 0.4241 -1.8444 -4.1893 2.3112 1.3538 -0.2803 -7.5336 -2.1579 1.6358 2.2663 1.3144 -2.9127 3.8400 2.6328 1.3431 -0.3980 0.9775 4.8860 5.4372 5.9654 4.5507 3.0629
2.7921 -1.9130 1.2027 1.5713 -0.4483 -3.5762 -0.1267 1.8883 0.2148 -2.9126 -4.4567 2.9261 1.3981 -1.2426 -8.4031 -4.4196 1.6686 1.6908 -1.1756 -4.4775 3.3582 1.3520 -3.6004 -2.0451 -5.2084 4.7449 -2.1418 -4.4834 -3.8192 2.2770
0.7037 -1.7063 2.1265 1.7426 -0.0763 -3.6226 0.4602 2.8247 0.1207 -3.1348 -2.8994 3.4732 1.9026 -1.7529 -7.6464 -4.4379 2.0395 1.2749 -2.6018 -3.8321 3.0685 1.5599 -2.4784 -1.9921 -4.7701 6.4974 -0.9575 -3.1792 -2.7889 2.1903
-1.3555 -2.8828 2.0105 1.5671 0.2343 -0.2117 0.6665 3.0035 0.0011 -1.6951 0.0219 4.7990 2.1715 -1.4547 -5.1920 -2.5174 1.7714 1.0954 -2.0309 -1.2882 2.0849 2.4709 2.5201 -0.1435 1.7278 6.4958 6.1802 7.5018 6.1857 2.4207
-3.7821 -1.9093 0.2939 -0.1799 -0.5461 2.8877 -0.3210 1.9698 -0.5647 -1.0188 1.5133 5.1025 1.9246 -0.8781 -2.1725 -1.8499 1.1664 1.1286 -0.4202 0.9842 1.5600 2.8376 4.5360 1.8100 6.3732 5.3147 9.1835 12.4258 10.8563 2.6149
-4.6976 -0.6716 -0.9974 -1.6362 -1.6785 1.5213 -1.1042 1.0748 -0.8164 -1.4058 0.7959 3.1393 1.9023 -0.4006 0.0516 -3.7824 1.6129 1.5858 1.5246 1.7193 2.9384 3.0387 2.0769 2.8230 3.7204 5.9710 4.9326 5.4440 5.6054 3.0741
-2.8459 -1.8964 -0.8557 -0.9380 -1.7459 -1.5367 -0.6851 1.0800 -0.1556 -0.4421 0.0544 1.0167 2.3240 0.2077 1.1553 -4.5570 2.8451 2.3874 3.9657 1.9918 4.6658 3.6849 0.4949 3.6005 -1.2380 7.4542 0.3595 -2.4826 -0.9133 4.1587
-2.1774 -3.1948 -0.8312 0.2006 -1.3648 -2.2306 -0.5336 1.1654 0.5914 1.4306 -0.0049 0.6644 2.7009 0.8352 1.1914 -1.4576 3.3790 3.2220 6.2628 2.5226 4.5033 4.5172 3.7468 4.5355 0.0261 7.6511 2.8435 0.8656 1.3541 4.8976
-4.9973 -3.4591 -1.5531 0.0394 -1.7270 -1.9059 -1.3973 0.9196 0.6775 1.7804 -0.6539 1.0184 2.7238 0.9137 0.4551 2.0616 2.8393 3.7563 7.2419 2.6049 2.8519 5.2293 8.5209 5.0204 6.4088 7.1147 9.9567 11.4739 9.3774 4.1114
-5.8887 -5.4947 -1.8830 -0.3803 -2.1864 -2.4715 -1.7833 0.5352 0.3481 1.2189 -1.7067 0.4675 2.2969 0.5092 0.1388 1.6270 1.9900 3.5504 7.1303 2.1214 1.7636 5.4618 8.6633 4.6129 8.5244 6.3597 11.9658 14.4177 11.4517 2.4912
-2.5904 -7.6428 -1.3331 -0.4116 -1.7859 -2.6228 -1.2014 -0.4783 -0.0484 1.4835 -1.4093 -0.6385 1.6126 0.2902 1.0204 -1.4936 1.5197 2.6113 6.6268 1.6227 2.0907 4.4659 3.6328 3.4618 3.2395 4.9108 5.0868 4.5858 3.6978 1.3669
-1.8291 -5.1444 -0.4817 -0.9341 -1.1403 -2.0604 -0.7981 -1.9754 -0.3936 1.5259 0.4703 -1.0215 1.0973 0.5296 2.3205 -2.8069 1.3200 1.5889 5.4981 1.1379 2.4521 2.3382 -0.5935 2.2946 -1.9854 3.2599 -2.9314 -6.2941 -4.6449 0.8110
-4.9690 -1.5304 0.0672 -1.6586 -1.1286 -2.0032 -0.6203 -2.1152 -0.5493 0.3667 1.9834 -0.2346 0.8221 1.0456 3.2416 -0.9023 0.8117 1.0158 4.2105 0.7968 1.6282 0.7285 0.8459 1.9467 -0.7708 2.4594 -2.6340 -4.9399 -3.4994 0.4133
-4.6944 -3.9576 0.0888 -1.4949 -1.3768 -1.3787 0.1197 -0.4954 -0.6668 -0.0140 2.2100 0.8107 0.4286 1.4994 4.0353 1.2500 -0.1397 0.7508 3.8524 1.2180 0.4694 0.5581 5.1633 2.3157 3.9483 2.4088 4.3738 5.6849 4.6281 0.0740
-0.8639 -8.3999 -0.5859 -0.7750 -1.0512 0.7431 0.7304 0.3106 -1.1377 1.4757 2.2651 0.3846 -0.5141 1.3064 4.6152 0.4207 -1.3944 0.0767 3.6327 2.1875 -0.3013 0.2904 5.2001 2.4866 5.2117 2.2701 7.0188 9.6903 7.7663 -0.3196
-0.5023 -5.9510 -1.9744 -0.4388 -0.2672 1.5690 0.1247 -0.8315 -1.7760 2.3334 2.0053 -1.4689 -1.9845 0.2711 3.9311 -2.7595 -2.8244 -1.3127 2.2550 2.2983 -1.2458 -1.3201 -0.2913 1.9848 0.8642 2.0432 0.7767 0.9495 1.2368 -0.6739
-3.3457 0.7042 -2.7901 -0.6674 0.0673 -0.4700 -0.7081 -1.6947 -1.9215 0.9721 0.3527 -1.5223 -2.9959 -0.6160 1.8557 -4.4443 -3.4693 -2.2287 0.8776 1.1132 -1.9427 -2.4540 -3.8469 1.5153 -3.8854 2.2631 -5.0281 -7.1425 -5.0956 -0.6280
-3.6388 3.1357 -1.6545 -1.2290 -0.3609 -2.2001 -0.4107 -1.3423 -1.4857 -0.5465 -1.2500 1.4393 -2.4807 -0.3507 -0.1319 -1.8683 -2.2851 -1.2207 1.2561 0.4582 -1.1531 -0.9190 0.0594 2.1958 -2.3462 2.8482 -1.0462 -1.5181 -1.0864 -0.0967
-0.6604 1.1177 0.0748 -1.6217 -0.9192 -1.8610 0.0483 -1.5140 -0.9261 -0.9409 -1.3925 2.8349 -0.8464 0.4165 -1.3352 3.1629 -0.2391 0.9556 2.8354 1.5551 0.6487 1.9787 6.4772 3.6561 4.2349 3.1700 7.7319 10.3624 7.9849 0.6262
2.3149 -1.4671 0.3004 -1.2123 -1.0454 -1.7209 -0.5029 -2.3648 -0.3753 -1.3221 -1.6495 0.2263 0.5632 0.6308 -2.5304 5.1671 0.8627 2.2212 3.9581 2.5692 1.9966 3.2671 7.1853 4.1217 7.1422 2.6978 8.9536 11.2627 8.8862 1.0693
3.2709 -3.7334 -0.4507 0.0478 -0.7466 -2.4581 -1.2130 -1.9996 0.3153 -1.7995 -2.5549 -1.2426 1.3251 0.6672 -3.8128 1.5187 1.1256 2.3291 3.8762 1.7178 2.5567 2.6210 2.2489 3.0320 2.7770 1.8900 0.9590 -0.2087 0.3767 0.8790
1.9832 -4.4177 -0.8261 1.4810 -0.4279 -2.5840 -1.3201 -0.1980 0.9533 -2.1001 -2.5816 1.4295 1.9751 0.9134 -4.7469 -3.1644 1.6400 2.4829 2.6803 0.2540 2.4743 1.9349 -1.1219 1.6142 -2.0284 1.9177 -5.0548 -8.0673 -5.4681 0.3597
-0.4956 -2.0767 -0.5056 2.0150 -0.5634 -2.2924 -1.1035 1.3140 1.1123 -2.9676 -2.2654 3.8043 2.6176 0.6668 -5.5961 -3.4304 2.3332 2.7544 1.1208 -0.1434 1.9085 2.1382 1.2645 0.9583 -0.4993 2.7181 -1.4178 -2.4134 -1.1765 0.3863
-1.8081 0.2009 0.7127 1.0994 -0.9899 -2.2801 -0.3750 1.6942 0.7231 -3.5374 -2.7307 3.0199 2.7622 -0.0827 -5.8855 -0.4586 2.6364 2.5743 0.2441 0.2532 2.0064 2.6932 5.6690 1.2397 4.8419 3.2564 5.9905 7.8212 6.6944 1.2546
0.1558 -1.0123 2.2767 -0.1862 -1.0439 -2.2560 0.8753 1.4334 0.1447 -2.1825 -2.6970 1.1819 2.2378 -0.5014 -4.4950 1.7110 2.4433 2.1509 -0.0725 0.8386 3.3679 2.7876 5.6752 1.8878 6.7242 3.5738 7.0667 8.5553 7.4788 2.2929
3.7935 -2.9836 2.6002 -0.4420 -0.7176 -2.6396 1.5425 0.5188 -0.2828 -0.1600 -1.5687 -0.1295 1.2376 -0.6546 -2.2456 2.1333 1.6070 1.5633 -0.8349 1.5968 4.2857 1.9738 0.9437 1.9220 3.4062 3.9192 0.9989 -0.6599 0.5000 3.0054
4.1064 -1.9265 1.2927 -0.1972 -0.6429 -3.7909 0.9277 -1.4505 -0.4796 0.4183 -0.7423 -0.7053 -0.0584 -0.9622 -0.9448 1.4702 0.1614 0.4810 -1.7093 2.1852 3.2173 0.5932 -2.0218 1.1643 0.5260 3.3431 -3.4691 -6.6603 -4.1859 3.0925
0.3329 0.1686 -0.3990 -0.7808 -1.0021 -4.3133 -0.2979 -3.3416 -0.4868 0.3181 -0.4326 -0.3087 -1.1512 -1.0548 -0.4349 0.5120 -1.1272 -0.5813 -1.4651 2.2245 1.0601 -0.3913 0.8132 0.5583 2.4536 1.5579 -0.1331 -0.7473 0.2448 1.9272
-1.3729 0.0892 -1.4226 -1.7973 -1.3108 -3.0106 -0.9849 -3.1662 -0.2889 1.1699 0.2496 0.4834 -1.4243 -0.7112 0.4785 1.0076 -1.7214 -0.7444 -0.4158 2.1247 -0.6047 -0.5002 5.1221 0.7289 6.2786 0.0609 5.7784 8.6614 7.3309 0.3167
1.5248 -1.5026 -1.6666 -1.5219 -1.0568 -0.8838 -0.6621 -1.0414 0.1320 2.1247 1.1601 0.7374 -1.0418 -0.4389 1.6453 2.4359 -2.0275 -0.3159 0.2673 2.3311 -1.2492 -0.4114 4.5550 1.2108 6.5626 -0.0941 4.7893 7.5620 6.5643 0.2006
2.7463 -2.8548 -1.7443 0.5110 -0.3453 0.2507 -0.1622 0.5893 0.5236 1.7181 1.6450 0.2757 -0.6626 -0.4865 2.1858 1.3664 -2.2620 -0.2230 0.6351 2.2966 -1.1473 -0.9590 -0.2693 1.2750 2.6432 0.1929 -2.7946 -3.2639 -1.4068 0.8888
-0.5935 -2.9939 -2.2719 2.2722 0.0512 -0.2450 -0.5011 0.2234 0.5284 0.9203 1.4742 0.0259 -0.4088 -0.4093 2.2390 -1.2289 -1.7755 -0.3933 1.0287 1.6137 -0.9652 -1.4681 -2.5554 1.0044 -0.2112 -0.3416 -7.0611 -9.2451 -5.8768 0.3330
-2.3580 -1.6156 -2.6053 1.7234 -0.3032 -1.4992 -1.0830 -0.9108 0.2848 1.2724 1.0637 1.0308 0.0967 0.1600 2.7012 0.1603 -0.2668 0.0210 1.0469 1.3996 -0.8589 -0.3719 1.1541 1.2428 2.7744 -1.2586 -2.4964 -2.6464 -0.9979 -0.4717
-0.0799 -0.7802 -1.6645 -0.1818 -0.8366 -2.1304 -0.8002 -1.4862 0.1017 2.1914 1.3921 2.3130 0.7718 0.8361 3.7106 4.6415 1.3222 1.0408 0.9762 2.5272 0.0252 1.8971 5.7617 2.1231 7.9143 -1.1409 4.4920 6.8102 6.0829 0.0479
1.9572 -2.7951 -0.2602 -1.3314 -0.9974 -1.9234 -0.1165 -2.1406 -0.2995 2.3924 2.3418 2.1747 0.7448 0.8814 4.4208 4.6516 1.8482 1.5222 1.6061 3.6915 1.6625 2.7273 4.8105 2.5747 7.0266 -0.0087 4.0962 5.3016 4.8018 0.4628
3.1262 -5.4531 -0.1921 -1.5115 -0.9932 -1.7694 0.0576 -2.8475 -1.0738 1.7340 2.3520 1.1077 -0.3820 0.3242 4.2544 -0.6716 1.3202 0.9143 2.2003 3.4536 2.2316 1.1736 0.0391 2.2645 0.6951 0.8064 -3.2678 -5.4596 -3.4409 -0.4060
4.0769 -4.8978 -1.5251 -1.1172 -0.8923 -1.5052 -0.2192 -2.2253 -1.5369 0.9559 1.1484 0.2116 -1.4993 0.0741 3.4651 -3.8290 0.6355 0.3556 1.5976 2.5444 1.0015 -0.4463 -1.1757 2.2608 -1.9759 0.8750 -6.6697 -9.7669 -6.5307 -1.3886
1.6257 -2.2795 -2.8766 -0.0464 -0.4111 -0.4390 -0.8516 -1.1733 -1.3288 0.9256 0.0660 -0.5426 -1.5660 0.4560 2.3388 -1.9698 0.3777 0.6964 0.5675 1.9817 -0.1947 -0.1450 3.1640 2.6667 2.0239 0.7216 -0.6085 -0.9884 0.1582 -2.0139
-2.7368 -1.0676 -3.1311 0.7251 0.1983 0.2720 -1.6416 -1.5194 -1.0023 1.4943 -0.6219 -0.7499 -1.2698 0.6812 0.7666 0.1088 0.3606 0.9160 0.1749 0.9224 -0.0280 0.8779 6.6947 2.0349 5.5715 0.4585 5.9726 7.8716 6.3692 -2.9299
-3.1963 -0.6771 -2.0578 0.2372 0.4115 -0.5445 -1.7118 -1.9347 -0.7766 1.5372 -1.4941 0.0679 -1.3968 0.3896 -1.1241 -0.6932 0.2809 0.4064 -0.1499 -1.1354 0.8140 0.7440 3.9283 0.1128 2.7102 0.3255 3.2211 3.6137 2.4654 -3.3910
-0.5945 0.3291 -0.4743 -0.5281 0.1647 -1.6640 -1.0242 -1.2508 -0.4340 0.8368 -2.1367 1.0633 -1.1838 0.1997 -2.7069 -2.4380 0.4330 0.3890 -0.5787 -2.4138 1.6405 0.1178 -1.7192 -1.4263 -3.2810 0.8982 -4.5911 -7.5620 -6.3383 -2.2648
1.4289 0.1520 0.7565 -0.6644 -0.3390 -1.7731 -0.5327 -1.2981 -0.2692 0.0187 -1.8641 1.7358 -0.0008 0.3358 -3.4908 -1.7928 1.2265 1.3106 -0.5265 -1.8564 1.9544 0.4509 -2.5418 -1.6224 -4.5590 1.4310 -6.1562 -9.6465 -7.8684 -0.5631
3.5824 -1.4566 1.5810 -0.3488 -0.6494 -1.1183 -0.3703 -2.0805 -0.2297 -0.8703 -1.0366 2.5721 1.4053 0.3818 -3.5261 1.8951 2.1975 2.0034 -1.2541 -1.2024 1.0520 1.2323 2.3175 -1.2839 0.4917 0.8653 0.1939 0.0869 -0.2488 -0.0256
4.5951 -1.7764 1.4350 0.8880 -0.2766 -0.2794 -0.4079 -1.1858 0.5500 -1.6100 -0.8298 3.2712 2.3779 0.2497 -3.2330 3.8375 2.4886 2.1114 -3.8645 -1.8950 -0.1790 1.5149 5.5911 -1.2637 4.5221 0.1796 5.3873 8.1766 6.1902 -0.5015
1.6092 -0.8219 -0.1643 2.8019 0.3456 -0.2616 -1.0506 0.8009 1.7868 -1.5932 -1.9632 3.5459 3.0488 0.1462 -3.0877 -0.1245 2.3166 2.2911 -5.7837 -2.9570 0.0974 1.6159 2.6463 -1.4884 1.6933 0.5349 2.7027 4.1700 3.3728 -0.8207
-1.4791 -0.8060 -1.3200 3.3053 0.3957 -1.8085 -1.6903 1.4173 2.0967 -1.3645 -3.5923 3.7432 3.4393 0.1322 -3.2051 -4.8222 2.5813 2.5024 -4.3448 -3.0104 1.4893 1.7391 -2.1041 -1.5059 -3.8688 1.2322 -3.7343 -5.6214 -4.2103 -0.7913
0.1372 -1.9720 -0.6803 2.1864 0.1193 -3.3110 -1.3608 0.8254 1.5116 -1.7374 -4.2094 2.7884 3.1962 0.0958 -3.2198 -3.5333 2.7377 2.0859 -1.1937 -2.0729 1.6006 1.4019 -2.0278 -1.0811 -4.5558 1.1428 -4.5564 -6.9672 -5.7671 -1.0105
3.5874 -3.8466 -0.5179 1.5171 0.0819 -2.8715 -0.9409 0.1831 1.0255 -1.9127 -3.2826 0.3848 2.1978 -0.1651 -2.7319 0.0094 1.3915 0.9381 0.4167 -1.0239 -0.4333 0.6029 2.3849 -0.5161 -0.1139 -0.1737 1.5247 2.2600 1.0277 -1.6810
3.9269 -5.2841 -1.7694 1.1574 -0.0568 -1.4027 -1.3141 -0.3944 0.6413 -0.8869 -1.4243 -0.2766 1.1620 -0.4769 -1.7963 -0.5065 -0.5626 -0.0058 -0.5406 -0.5289 -2.2301 -0.1125 4.7813 -0.4048 3.0345 -1.8096 5.2624 8.5340 6.3799 -2.1926
0.9085 -3.9762 -1.4022 -0.1291 -0.6297 -0.6359 -1.2810 -0.3852 0.2273 0.5071 -0.0803 2.1032 1.0374 -0.4476 -1.1638 -3.1645 -0.8800 0.1296 -2.9979 -0.8296 -1.4135 -0.5801 1.8619 -1.0519 0.8666 -1.7798 0.7240 2.4145 2.3577 -1.9095
-1.6006 -1.0212 1.1692 -0.8913 -1.1552 -0.8213 -0.1393 0.2897 0.2480 0.8865 -0.1995 4.0292 1.6103 -0.3390 -1.4963 -4.2226 0.2989 0.7708 -4.7871 -1.6007 0.5703 -0.9245 -2.5962 -2.1283 -3.6014 -0.0342 -6.0293 -7.7674 -5.4640 -0.9442
0.0265 0.0189 2.5122 -0.1119 -1.2015 -1.4639 0.7207 0.1697 0.5628 0.5744 -0.4974 3.4066 2.0719 -0.3677 -1.8927 -3.2815 1.4046 1.1138 -3.9996 -1.5854 1.1805 -0.6247 -2.5068 -2.6077 -3.8153 1.4261 -5.8078 -8.0934 -6.0200 0.3230
3.8295 -0.7316 1.6119 0.3353 -1.0173 -1.5278 0.3280 -1.0782 0.5075 0.5921 0.4554 1.8822 2.3534 0.0094 -0.9629 0.5816 1.9808 1.5520 -1.4847 -0.2818 0.7471 0.6167 2.4841 -2.0484 1.6785 1.7537 1.1879 1.4516 1.0484 1.1317
4.5659 -1.5517 0.3561 -0.1947 -1.0705 -0.4218 -0.7704 -2.0696 0.0408 0.5075 1.3395 0.7790 2.4016 0.5820 0.6004 5.4483 1.7453 2.1510 -0.1167 0.4554 0.0504 1.2493 5.4164 -1.7806 5.1641 0.9960 5.0092 6.7197 4.4628 0.2897
1.7642 -2.6935 -0.7865 -0.3535 -1.5146 0.0058 -1.8313 -2.2868 -0.2979 -0.2063 0.6330 0.2281 2.0301 0.5026 1.3862 4.7963 0.7548 2.2055 -0.4029 -0.4877 -1.3021 0.0796 1.8254 -2.5435 0.4152 -0.6883 -0.7248 -0.8446 -1.9973 -1.6123
-1.0837 -3.6820 -1.5527 -0.3424 -2.1112 -1.6488 -2.0982 -1.9606 -0.1060 -0.4599 -0.1859 0.4986 2.0579 0.4747 2.1046 -0.4304 0.5320 2.1589 -0.0134 -0.8407 -2.3571 -1.0360 -2.6292 -2.3863 -6.0887 -1.7757 -8.6504 -11.2033 -9.7227 -2.3379
-2.1223 -3.6466 -0.6034 -0.9530 -2.4986 -2.6102 -1.0589 -1.3009 0.2817 0.3807 0.9378 1.2758 2.8559 1.4395 3.8357 -0.4201 1.4364 2.8436 1.7993 1.2946 -2.0543 -0.3281 -0.7269 -0.0042 -4.5159 -1.3402 -7.7252 -9.6900 -7.8264 -1.5591
-0.3843 -3.7951 0.9483 -1.2413 -2.5096 -0.4628 0.3249 -1.2604 0.1039 1.2398 3.4166 1.8163 2.9060 2.1484 5.5074 5.4139 1.5883 3.3152 3.1752 4.1171 -1.5714 0.6838 4.8073 2.4618 2.7034 -0.8214 0.2515 1.5622 1.2144 -0.7142
3.7515 -4.3796 0.3980 -0.5306 -2.1348 2.0255 0.6750 -1.8792 -0.4497 1.5090 5.2996 2.3725 1.5315 1.5487 5.7943 6.1203 0.6355 2.4188 3.2003 5.1403 -1.5585 0.4185 6.0338 2.9559 5.5251 -0.8479 4.0232 7.2714 6.0100 -0.0169
5.7986 -2.9975 -1.2044 -0.0500 -1.5028 1.9506 0.3964 -1.6012 -0.4936 1.7225 5.6939 3.0125 0.2798 0.9182 5.0121 -0.5779 0.3795 1.0807 2.9050 4.5456 -0.6239 -0.0234 1.8894 2.5730 1.8782 -0.0835 -0.3432 1.0316 2.1136 1.3472
3.7735 0.4255 -0.5797 -0.7530 -1.1245 0.8245 0.7414 -0.6238 -0.1499 1.6916 4.6778 2.4809 -0.0118 1.1138 3.5087 -4.3112 1.1934 0.7585 2.8406 3.8647 1.5394 0.5443 -1.2418 2.8242 -0.8626 1.5787 -5.0203 -6.7423 -3.0681 3.4165
3.1604 1.8359 1.7649 -1.4220 -1.3927 0.2058 1.5580 -0.3816 0.1673 0.3803 2.4445 1.2152 0.1873 1.3294 1.0253 -0.3522 1.9121 1.4739 2.6202 3.4845 3.1618 1.7633 1.3835 3.2666 2.4375 2.7369 -1.9147 -3.5266 -0.5701 5.1443
5.8958 -0.1087 2.5093 -0.7268 -1.9668 -0.8341 1.6171 -0.0814 0.9395 -1.9168 -0.2492 1.4645 0.9849 1.3116 -1.4902 4.3073 2.2324 2.5891 2.4965 2.7951 3.2584 3.1094 6.9560 3.1659 7.6234 3.1812 6.3217 7.8576 7.5410 5.3186
5.4314 -0.9390 1.2482 0.0918 -2.4418 -2.0716 0.6028 0.8950 1.8540 -3.1556 -1.6447 2.5041 2.1860 1.4225 -2.2717 3.9986 2.3797 3.6193 3.0527 1.8179 2.8124 4.0152 8.6602 2.6639 7.2011 3.7067 9.5533 12.3335 10.0664 4.0434
0.5463 1.2866 0.6360 -0.5669 -2.6712 -2.2290 -0.2659 0.9704 1.7182 -2.3484 -0.6573 2.4840 2.9444 1.5517 -1.2465 1.3842 2.3124 4.1622 3.9128 1.3713 2.5993 3.7833 4.7542 2.1446 0.8880 4.1754 3.9003 4.0033 2.9408 2.8643
-1.4798 1.4350 1.5044 -1.4674 -2.4381 -2.1521 -0.0235 0.2408 1.1273 -0.9691 1.2478 2.9117 3.5534 1.7778 0.0740 0.1199 2.3095 4.2613 4.2256 1.7517 2.1334 3.0585 1.1182 2.0241 -3.8974 4.1938 -2.5749 -4.9032 -3.9775 2.5890
0.8764 -3.2391 2.1252 -1.1624 -2.1263 -2.7335 0.6183 0.2698 1.4912 -0.5157 1.8392 4.0311 4.3069 2.1703 0.7566 -0.6087 2.4392 4.2049 3.6453 2.2886 1.3514 3.2364 2.9310 2.2788 -1.9684 4.1512 -0.6559 -1.6042 -1.0442 2.2063
2.0533 -6.8779 1.8855 -0.6961 -2.3265 -2.3926 0.6774 0.3287 2.1284 -0.6526 1.1198 3.0754 4.2389 2.1246 0.8434 -1.4608 2.1906 3.9564 2.4614 2.1915 0.8452 3.8456 7.3319 2.0308 3.1103 3.7259 6.7066 8.7649 7.0425 0.9663
1.1360 -4.4675 1.2451 -0.6622 -2.3276 -0.4433 0.0641 -0.1965 1.9466 -0.4349 0.3094 1.2062 3.4684 1.4635 0.4213 -0.6349 1.7394 3.5575 1.3865 1.2528 0.3494 3.1459 7.4410 0.7866 3.7370 1.9930 7.8352 10.4764 7.8768 -0.2482
1.3858 -0.0447 -0.2791 0.0676 -1.3740 0.8155 -1.0587 0.3578 1.6961 -0.1138 -0.3943 1.8779 3.1873 0.7841 -0.4960 0.4134 1.6741 3.1345 0.6248 -0.0574 -0.6246 1.1360 1.8656 -0.8772 -1.9262 -0.2551 -0.6261 -0.3332 -1.0038 -0.7996
2.1303 0.4660 -2.0588 1.4088 -0.3589 0.2140 -1.9604 1.9496 1.9316 -0.5620 -0.8133 3.1685 2.9714 0.3058 -1.5063 -2.0180 1.4789 2.3563 -0.4826 -0.9947 -1.5689 -0.5646 -3.2128 -2.3560 -7.1784 -1.5744 -8.4123 -10.3064 -8.7178 -1.4469
1.3267 -2.0102 -2.1231 1.9147 -0.1818 -0.0258 -1.6673 2.1191 1.7525 -1.0226 -0.2379 1.5273 2.0023 -0.0123 -1.8185 -5.0408 0.5701 1.2969 -1.6707 -1.1555 -1.7792 -0.9572 -2.0778 -3.0905 -5.2124 -1.9720 -6.0066 -7.1099 -5.8830 -2.3304
1.0855 -3.1497 -0.8276 0.9981 -0.4724 1.5057 -0.8253 0.3441 0.8918 -0.1878 0.8092 -0.9853 1.2821 0.1339 -1.0179 -2.8332 0.0100 1.0273 -1.5988 -0.5416 -0.9059 -0.0145 2.8872 -2.4391 1.6090 -1.5083 2.9061 4.5069 3.2347 -2.1244
2.7870 -1.5708 0.2099 -0.7205 -0.7996 2.9105 -0.5048 -1.2567 0.3206 0.8696 1.4121 -0.6332 1.6697 0.6430 0.3967 1.6417 0.8361 1.7530 -0.3795 0.5781 0.9570 1.4867 4.4342 -1.1569 4.5605 0.0883 6.8450 9.0906 6.5738 -0.5456
2.8578 1.4704 0.9423 -1.8686 -1.0844 2.5641 -0.2484 -1.2136 0.4962 0.7383 2.1667 1.3577 2.2285 0.8476 1.7145 1.6519 1.8340 1.9429 0.8676 1.4952 2.4961 1.9141 0.6066 -0.7916 0.6459 1.6710 1.4613 0.9315 0.1807 0.8086
0.0785 3.6157 0.7061 -1.3668 -1.0959 1.2995 -0.0825 -0.1829 0.9184 0.3880 3.0627 1.6168 2.1028 0.6827 2.6392 -0.6981 1.3807 0.8351 2.0411 1.6485 2.1646 0.7368 -2.6672 -0.9726 -3.2713 1.6873 -4.9839 -7.9751 -6.4685 1.0196
-0.6661 2.2150 -1.4307 0.0588 -0.9961 -0.0034 -0.8261 0.6059 1.1477 0.6432 2.5488 0.4868 1.7296 0.5962 3.0346 0.0745 0.0947 -0.2584 2.6850 1.3537 0.3057 -0.4356 -0.5404 -0.4842 -1.1138 0.3573 -3.4936 -4.9895 -3.9107 0.5710
2.3013 -1.9101 -3.0872 0.8989 -1.2840 -1.4008 -1.3066 0.8517 1.1655 0.8165 1.0625 0.2227 1.5704 0.5038 3.0454 1.5687 -0.6606 -0.3801 1.9246 0.8273 -1.4775 -0.5741 3.6364 0.1157 3.2681 -0.8767 2.6342 4.6467 3.6265 -0.1470
4.0492 -4.0980 -1.9247 0.9607 -1.4402 -2.1613 -0.1998 0.4640 1.0049 0.9263 0.9546 0.5554 1.1746 0.2010 3.1181 -0.4574 -1.0329 -0.3977 1.0617 -0.1815 -2.1724 -0.6275 3.5077 0.1656 2.7664 -1.0213 3.4403 6.1882 4.9755 -0.5164
3.5106 -2.9232 0.1331 0.6686 -0.5574 -1.3222 1.0356 -1.1157 0.5365 1.2362 2.4288 0.4351 -0.0703 -0.1015 3.2939 -2.7624 -1.5212 -1.0970 1.6834 -0.6662 -1.5334 -1.2146 -0.8935 0.5690 -1.8267 -0.1031 -2.4216 -2.4600 -1.3381 0.4684
5.0795 -1.7052 1.1573 0.0262 0.5939 0.1442 1.3505 -3.2156 -0.2514 1.0546 3.7111 0.5887 -1.7976 -0.3947 3.2665 -0.7381 -1.6541 -1.8195 2.3657 0.7676 -0.0660 -1.5421 -3.1365 1.6287 -3.4486 1.1947 -6.1417 -8.3803 -5.5585 2.3972
7.0400 -0.8378 1.9309 -0.3373 0.6543 0.5345 1.9694 -3.5903 -0.9099 0.8072 3.8379 1.2976 -2.9541 -0.7865 2.9723 3.5417 -1.2112 -1.8510 1.4924 2.6864 0.9186 -1.0279 0.4999 2.2120 0.8237 2.2834 -1.6456 -2.4958 -0.9465 3.6850
4.0933 1.9316 2.3951 0.3205 0.0279 -0.0132 2.8938 -1.9694 -1.1029 1.4735 3.0664 1.3143 -3.3533 -1.0708 2.4312 5.2984 -1.0311 -1.7142 0.2398 2.5447 0.5396 -0.3481 5.3724 1.7540 5.8641 2.9778 5.7626 7.7436 6.7641 3.8841
0.2392 4.4875 1.8615 1.0357 -0.1973 -0.4164 2.8449 -0.8668 -1.2480 1.5783 2.3148 0.3393 -3.7142 -1.2644 1.5857 3.5077 -1.5694 -2.0803 -0.2363 0.9569 -0.4431 -0.4925 4.4597 0.6993 5.2969 3.1015 6.2066 8.3104 6.9979 3.7891
1.5942 4.2592 1.3507 0.6395 -0.0653 -0.5644 2.2193 -0.9639 -1.6133 -0.1564 2.1031 -0.2474 -3.9832 -1.5313 0.5370 0.6223 -2.0100 -2.4185 -0.8912 -0.0153 -0.5395 -1.4303 -1.5845 -0.6278 -0.2207 2.5475 -1.1327 -1.9429 -1.0014 3.6888
4.3436 3.5301 1.3466 -0.1610 -0.0308 -0.7127 1.8174 -0.5751 -1.5983 -1.7737 1.7822 0.2841 -3.4409 -1.5390 -0.3296 -0.5140 -1.7680 -2.0221 -2.4303 -0.4958 0.0851 -2.2826 -4.9972 -1.9983 -3.7806 1.7250 -6.3590 -9.0317 -6.6304 3.0873
4.1137 3.4907 1.3594 -0.3668 -0.0631 -0.5546 1.3681 -0.1000 -0.7916 -1.6921 1.3152 0.8059 -2.1407 -1.0256 -0.4832 1.2721 -1.2250 -1.2253 -3.7444 -1.1487 -0.0707 -2.2242 -1.8322 -2.7159 -1.2964 1.3746 -2.4066 -3.1569 -2.4934 2.0810
2.9171 2.7527 2.1870 -0.1336 0.0080 0.1357 1.1739 -0.5854 0.3949 -0.7838 1.7586 0.4918 -0.4211 -0.3553 0.0335 3.8623 -0.3756 -0.3521 -3.4411 -1.4794 -0.6588 -0.9695 2.9785 -2.3104 2.9426 1.9893 5.1668 7.3370 5.1501 1.4647
1.4987 2.1790 3.6338 0.2566 0.0779 0.7750 1.5534 -0.1899 1.3797 -0.0873 2.5317 0.4559 1.5599 0.0678 0.1987 3.1275 0.7169 0.6645 -1.8511 -1.8549 -0.3482 0.4189 2.8972 -1.7730 1.9795 2.6257 5.5067 7.3064 4.8993 1.0299
-0.0393 1.3737 3.3181 0.8241 -0.1804 0.4241 1.4047 1.7682 1.7867 -0.5008 1.8415 1.4999 2.7461 0.1627 -0.9435 -1.5665 0.6762 1.0795 -0.9159 -3.2857 -0.1652 0.1802 -1.7413 -2.6366 -3.9814 1.0632 -2.8705 -4.1053 -3.8117 -0.2024
0.9782 -1.9585 1.0608 1.3545 -0.7313 -0.8474 0.1664 2.5047 1.6118 -2.1897 -0.0717 2.5795 2.2510 0.0055 -3.0807 -5.5084 -0.7341 0.3479 -1.3474 -4.9486 -1.0750 -1.1406 -4.4156 -4.3692 -7.4568 -2.1881 -9.1494 -11.6678 -9.4285 -1.7332
3.4654 -4.3541 -0.5540 1.4726 -0.9153 -1.7265 -0.9760 1.2514 1.3311 -3.0911 -1.6580 2.9028 1.3084 -0.2162 -4.7459 -4.8451 -1.1767 -0.3195 -1.5779 -5.4316 -1.4252 -1.0647 -1.1431 -4.8488 -4.1889 -3.1394 -4.6999 -5.0090 -4.3367 -2.0131
3.6072 -1.6297 -0.3667 1.1264 -0.4301 -1.7169 -0.9987 0.3136 1.2680 -2.0617 -2.3891 2.3161 1.3195 -0.2989 -4.7624 -1.6538 0.1351 0.0411 -1.0906 -5.1359 -0.7797 0.4022 3.6135 -3.7426 0.9046 -0.9019 4.0753 6.4894 4.2577 -0.8418
1.8106 1.4235 0.4221 0.6823 -0.0123 -1.8864 -0.4053 0.2315 1.2236 -1.1658 -2.2831 0.0786 1.5581 -0.2078 -3.6359 -1.0112 0.6379 0.4201 -1.2575 -4.9281 -1.0610 0.7135 2.9151 -2.7464 0.6462 0.7765 4.8138 6.8900 4.6080 0.4998
-0.5626 0.1025 0.2413 0.2635 -0.3481 -2.4387 -0.4756 -0.0198 1.0375 -1.5533 -1.5222 -2.9316 0.9993 -0.2032 -2.6205 -4.3423 -0.9956 -0.1056 -1.9256 -4.5495 -2.5242 -0.8011 -2.3919 -2.7674 -4.9922 0.0471 -2.6985 -3.5351 -3.1315 0.6025
-3.6722 -1.3436 -1.1096 -0.3650 -1.0547 -2.1141 -1.4442 -0.1843 0.7792 -1.5901 -0.7132 -3.5847 0.2077 -0.5227 -1.7251 -6.6384 -2.7614 -0.8468 -1.7709 -3.7682 -3.9034 -2.2359 -4.7169 -3.2550 -9.0598 -1.8331 -7.2615 -9.3051 -7.7984 -0.8500
-5.0059 0.4390 -2.2940 -0.8542 -1.4674 -0.8479 -2.1433 -0.1176 0.5553 -0.4606 -0.0096 -1.3897 0.1470 -0.6867 -0.2864 -3.2526 -2.9801 -0.8469 -1.3052 -3.0745 -4.9278 -2.1827 -1.0137 -3.5433 -6.7025 -3.9386 -3.4434 -2.9033 -3.5326 -2.2853
-3.1855 1.8823 -2.4993 -0.7803 -1.6250 -0.2310 -2.1265 -0.8058 0.6389 0.5155 0.7063 0.0577 0.6549 -0.1144 1.2473 1.2728 -2.2447 -0.1270 -1.4600 -2.7115 -5.0084 -1.1203 2.9771 -3.3781 -1.8901 -4.7530 1.9053 5.0166 2.4090 -2.0741
-1.9717 0.5406 -2.2496 -0.8790 -1.8855 -0.9272 -2.1959 -2.2147 1.0346 0.1679 1.0090 -1.5989 0.7932 0.6107 1.9418 -0.6139 -1.4322 0.5434 -1.4005 -2.3988 -3.0783 -0.1453 1.6125 -2.7439 -1.9310 -2.4510 1.3038 2.6957 1.0843 -0.8910
-1.6396 -1.7729 -1.8604 -1.7011 -2.2247 -1.7187 -2.2829 -2.9494 1.1051 -0.8702 0.9530 -4.5505 0.3356 0.7855 1.9676 -5.8799 -0.6672 0.7083 -0.3294 -1.9432 -0.3836 0.4904 -2.4097 -1.6487 -6.0676 1.1197 -3.0883 -5.7540 -4.9538 0.2160
1.9116 -3.4072 -1.4037 -2.3685 -2.3199 -1.3899 -1.6791 -2.4328 0.6283 -0.8113 1.4422 -5.7524 -0.0624 0.8454 2.0004 -5.6945 -0.2054 0.8071 0.9389 -1.4262 0.6044 1.0576 -2.0694 -0.2216 -6.2528 2.3268 -3.4925 -7.0005 -5.4672 1.6410
5.5883 -3.4926 -1.3733 -2.2369 -1.9489 -0.3891 -1.0371 -1.7189 0.2103 0.8236 2.5541 -3.9360 -0.3493 0.9467 1.8745 -0.9401 -0.3811 0.9620 1.1538 -1.3239 -0.1722 1.3457 3.3905 0.7372 -0.6277 1.3936 2.3576 2.3595 2.1893 2.6859
3.6168 -1.4914 -1.4029 -1.7477 -1.1593 -0.0273 -0.9973 -1.8602 0.0393 2.1623 3.0842 -0.3276 -1.0286 0.5348 1.1562 0.6567 -0.8587 0.3752 0.0398 -2.2493 -0.9008 0.9911 6.6653 0.3483 3.2031 0.9738 7.2256 10.2917 8.3358 1.8869
-0.1612 1.0283 -0.2941 -1.3817 -0.4325 -0.6830 -0.4683 -2.3325 -0.2797 1.6015 2.1920 1.8047 -1.8557 -0.0627 0.1168 -1.9694 -1.1824 -0.8482 -1.5112 -3.6665 -0.5689 0.0813 3.0485 -0.8552 0.5850 1.3823 4.0946 5.9222 4.7872 0.7450
-0.7792 1.8639 1.5962 -1.4416 -0.4825 -1.6636 0.9836 -2.1502 -0.7214 0.0948 0.5686 0.5811 -2.4645 -0.2652 -0.7332 -4.2967 -1.6161 -1.5249 -2.6910 -4.1420 0.3342 -1.0508 -2.5593 -1.6040 -4.2639 1.3229 -3.0544 -4.5609 -3.1785 1.3572
-1.2980 1.4235 2.7078 -1.7632 -1.2039 -2.0283 2.0171 -1.4964 -0.9090 -0.7712 -0.3703 -1.1498 -3.0694 -0.4965 -1.0968 -4.1112 -2.3495 -1.6631 -3.3847 -3.5011 0.4781 -1.7827 -3.0156 -1.6535 -5.4385 0.8634 -4.3597 -6.4689 -4.5801 2.3051
-2.9893 1.6637 2.5810 -1.2546 -1.5141 -0.9420 2.0650 -0.6888 -0.7215 -1.1511 -0.1693 -0.2851 -3.5283 -0.8654 -0.9375 -1.4176 -2.7132 -2.0597 -2.9812 -2.7061 -0.5593 -1.3378 1.4619 -1.2918 -1.7932 0.9666 2.1842 3.0356 2.3447 2.0903
-1.8066 2.3265 1.1476 0.3663 -0.9833 1.1807 1.4588 0.3486 -0.4332 -1.5948 0.3070 0.7751 -3.6861 -0.8165 -0.6258 2.1801 -2.5816 -2.3232 -1.3893 -2.0975 -1.4783 -0.1949 4.6741 -0.5627 2.1407 1.2541 8.0375 11.3560 8.3394 1.9143
1.5196 1.4222 -1.4778 1.3824 -0.3836 2.1519 0.1960 0.6837 -0.5395 -1.7218 0.3063 -1.2732 -4.0611 -0.5690 -0.1424 2.6742 -2.9285 -2.0028 -0.5180 -1.5704 -1.3826 -0.1351 2.5044 0.0867 0.5889 0.4942 5.0832 6.9015 4.9709 2.1015
1.8216 -0.3059 -2.9159 0.6737 -0.2489 1.2000 -0.6614 -0.5628 -1.0224 -1.4761 0.1977 -4.4355 -4.3989 -0.4779 1.1507 -0.9693 -3.5134 -1.7067 -0.9933 -1.0231 -0.9231 -1.2694 -2.0779 0.4185 -4.7851 -0.5390 -2.9475 -4.7412 -3.6142 1.6486
-0.8125 -0.5137 -1.2737 -0.4597 -0.3278 0.7061 0.1786 -2.2306 -1.1062 -1.0421 0.5071 -5.0109 -3.6828 -0.0975 2.8005 -3.6598 -2.9452 -1.3392 -0.8372 -0.2216 -0.8174 -1.4029 -2.1793 1.1875 -5.5179 -0.0701 -4.1878 -6.5829 -4.6555 1.1752
-1.6915 -0.5307 0.4984 -0.6968 -0.4094 1.5472 1.0720 -2.8309 -0.4863 -0.0584 0.8118 -2.9028 -2.2519 0.4981 3.1222 -2.2736 -1.7216 -0.1976 0.0285 0.1199 -1.1484 0.0009 3.1290 2.1791 -0.0645 0.7124 3.5463 4.7712 4.2468 1.1623
0.3424 -2.6113 -1.2037 -0.4985 -0.5384 0.8802 -0.5711 -2.6446 0.1225 0.9031 0.2471 -0.9591 -1.2577 0.5650 1.3195 -1.1370 -1.4555 0.7426 -0.7716 -1.6562 -1.6964 0.6410 5.9460 1.3870 2.2389 -0.3862 8.0438 11.9198 9.3985 -0.0331
1.7438 -4.5960 -4.7386 -0.5935 -0.6813 -2.3268 -3.8725 -2.3958 0.1561 0.5076 -1.5471 -1.8147 -0.7611 0.2327 -1.7391 -4.1291 -2.0165 0.1156 -3.5802 -5.4740 -2.1617 -0.6487 1.3077 -1.6359 -4.0847 -1.9662 1.6362 2.9453 1.6004 -2.7844
0.0806 -4.0929 -6.1040 -0.8821 -0.7776 -4.9071 -5.5444 -1.7496 -0.1358 -0.8514 -3.8442 -4.9103 -0.2972 0.1143 -4.2631 -7.9950 -2.4981 -1.0953 -6.1571 -8.5494 -2.4443 -2.1590 -4.5239 -4.1377 -11.5795 -1.7562 -6.9383 -10.0621 -9.1161 -4.5663
-3.2076 -2.6034 -4.1476 -1.0589 -0.8061 -4.5455 -4.1538 -0.6283 -0.2647 -1.7125 -5.1545 -6.9197 0.1230 0.0449 -4.8827 -8.3879 -2.7042 -1.3660 -6.8790 -8.7710 -2.5438 -2.2559 -3.6467 -4.0898 -10.8297 -0.9687 -6.3414 -9.7523 -8.6735 -3.9210
-5.7943 -1.3041 -0.8280 -1.0482 -0.8148 -2.7084 -1.5128 -0.1982 -0.1164 -1.9204 -5.2390 -6.3561 0.3163 -0.2785 -4.2237 -6.2709 -2.3791 -1.1000 -6.0267 -7.4200 -2.4172 -1.4365 1.7198 -2.9824 -3.6548 -1.1213 1.4253 1.6047 0.7236 -2.4467
-5.9453 -0.1034 1.0419 -1.0119 -1.0447 -1.9524 -0.2686 -0.7308 0.0417 -2.0098 -5.2656 -4.3635 0.3442 -0.4391 -3.7327 -4.1615 -1.4447 -0.8508 -4.6940 -6.4246 -2.0823 -0.7333 3.5750 -2.6566 0.4658 -0.8472 5.5777 7.7588 5.5015 -1.7573
-2.7927 -0.5520 0.3332 -1.0300 -1.5019 -2.6955 -0.8165 -0.7160 0.0922 -1.8607 -4.8792 -1.7580 0.5495 -0.0513 -2.9039 -2.3384 -0.8042 -0.2374 -3.3793 -5.3233 -1.6192 -0.2673 -0.0544 -2.5659 -2.4932 0.1254 1.2816 1.5530 0.1612 -1.6211
0.3204 -2.2298 -1.5667 -0.7857 -1.6347 -3.2886 -1.4635 0.2346 0.1376 -1.1982 -2.9006 -0.1523 0.9790 0.5260 -0.4799 -1.6930 -1.1238 0.2818 -1.3478 -3.4573 -1.2496 -0.0323 -3.4679 -1.7335 -6.9459 -0.2406 -5.1128 -7.3803 -6.8675 -1.3212
-0.7777 -1.8783 -2.8261 -0.2679 -1.1523 -2.7573 -1.1242 0.6753 0.0617 -0.1821 -0.6818 -1.8810 1.1602 0.9004 2.6427 -3.1582 -1.5639 0.0877 2.2232 -1.6777 -0.9619 0.1347 -1.4465 -0.2643 -5.6508 -1.1307 -4.0850 -5.9383 -5.1960 -0.5715
-2.6194 -0.4163 -2.6526 -0.2125 -0.6338 -1.8090 -0.1846 0.1722 -0.1889 0.5367 -0.0002 -5.0120 1.0320 1.1883 4.5371 -3.8586 -1.0396 0.1292 6.0275 -0.2423 -0.2997 0.9298 4.0564 1.3464 0.8366 -0.1957 4.1380 4.9506 3.6955 0.4537
-0.3129 -1.2582 -1.3000 -1.0044 -0.7054 -1.3614 0.5124 -0.4405 -0.4146 0.2711 -0.1978 -5.0269 0.8840 1.2482 4.5132 -1.6167 0.0762 1.0374 7.3148 1.0117 0.6519 1.9878 6.1128 2.2324 4.4814 0.8889 8.3529 10.3968 7.8534 1.0163
2.3907 -3.1713 -0.3592 -2.0099 -1.0588 -1.9396 0.1640 -1.0208 -0.6790 -0.5648 -0.7347 -2.4522 0.4489 0.6597 2.9717 -0.2967 0.7561 1.6788 5.5797 0.9085 1.1562 2.0187 2.1094 1.6196 0.5107 0.1324 2.5944 2.5855 1.4946 0.4377
1.5097 -4.0295 -1.2643 -2.4061 -1.0136 -3.0851 -1.2398 -1.8055 -1.0264 -0.9125 -2.0125 -1.3748 -0.3560 -0.0479 1.1084 -3.0451 0.7141 1.2561 3.0820 -0.8204 0.8147 1.2769 -2.1768 0.2518 -5.5114 -0.5924 -4.5340 -7.2854 -6.3749 -0.9992
-0.3400 -4.4202 -2.9971 -1.9857 -0.8313 -3.1466 -2.3054 -2.4245 -1.2248 -0.7439 -3.1479 -2.0010 -0.9395 0.0876 0.3564 -5.9400 0.0407 0.3860 1.6450 -1.9041 -0.2839 1.0367 -0.6475 -0.2091 -4.8558 -0.2751 -3.0813 -5.2785 -4.6373 -2.0772
-2.5680 -3.4533 -3.6554 -1.2956 -1.1961 -2.1034 -2.0421 -2.7012 -1.4962 -0.4702 -3.2845 -1.9825 -1.2877 0.6956 0.7396 -5.0612 -0.9702 -0.2436 1.5664 -1.1748 -1.1923 1.4206 4.4037 0.5179 1.9905 -0.0265 4.5824 5.7889 4.4467 -1.8096
-5.8610 -0.6041 -3.0609 -1.2121 -1.7502 -1.9620 -1.3393 -3.2850 -2.0976 0.0152 -2.9319 -1.8242 -1.8389 0.7637 1.2890 -2.4825 -1.4601 -0.4192 2.5856 -0.2996 -0.4861 1.8347 5.8441 1.1172 5.4800 0.6112 8.5275 11.0184 8.5070 -0.5723
-5.6960 1.1114 -1.7843 -1.7946 -1.8455 -2.6660 -0.9468 -4.2023 -2.4569 0.1263 -1.9485 -2.3384 -2.2140 0.3670 1.9091 -0.4080 -1.1461 -0.1351 3.7288 -0.0518 1.1765 1.9541 1.9415 0.8586 0.9243 1.6959 4.1285 3.7099 2.0658 0.4454
-1.9121 0.8229 -0.2180 -1.8860 -1.7360 -2.4179 -0.1836 -3.7529 -2.1550 -0.7984 0.1267 -1.6094 -1.8824 0.1347 2.9498 1.9838 -0.8653 0.2916 3.8048 0.8509 1.5244 1.9001 -1.3572 0.5281 -4.3923 1.4734 -2.1791 -5.3795 -5.5652 0.7499
-1.3724 0.8221 0.5034 -0.8414 -1.6206 -1.5162 1.0020 -1.1829 -1.5701 -1.2619 1.9411 0.1159 -1.3266 0.2317 3.9456 3.8267 -0.9216 0.5285 3.2337 2.3637 0.5570 2.3577 1.2632 0.9831 -2.1964 0.4403 -0.4334 -2.1098 -2.7099 1.0031
-3.0816 0.1823 -0.1139 0.2226 -1.2122 -1.0339 1.5411 0.9384 -1.0715 0.1370 1.9385 -0.8700 -1.4296 0.5144 4.0459 3.3565 -0.9379 0.5035 3.4816 2.7018 -0.0599 3.1576 6.6416 1.7576 4.4886 0.6251 7.8886 9.7865 7.1908 1.7822
-0.6950 -3.0959 -0.4099 0.1896 -0.7579 -0.5999 1.3808 0.4210 -0.8980 1.4750 0.8201 -4.5909 -2.1501 0.6508 3.1608 1.7697 -1.1924 0.1955 4.3673 1.4218 -0.1938 2.7864 6.9740 1.6677 6.1132 1.4048 10.0764 12.3367 9.4046 2.3545
2.3012 -5.8004 0.5048 -0.3656 -0.7052 -0.5886 1.3039 -1.0376 -1.0904 0.5553 0.1093 -6.2002 -2.2466 0.4112 2.2047 0.0817 -1.6107 0.0319 4.2838 -0.0050 0.0046 1.3801 1.5533 0.8501 0.8060 1.4869 2.2990 1.1856 0.6880 2.0209
0.3353 -4.0087 1.0005 -0.3587 -0.7121 -1.8107 1.2186 -1.2149 -0.8878 -1.4261 -0.1619 -3.6818 -0.8564 0.1480 1.7485 -2.3282 -1.1061 0.7319 3.0374 -0.3437 0.9971 0.9948 -1.6027 0.7050 -3.2506 1.3731 -3.9376 -7.2382 -5.4959 1.6933
-1.4755 -0.0911 0.4380 0.3936 -0.2906 -2.5554 0.9899 -0.2131 0.3552 -2.2055 -0.5997 -0.5627 1.1440 0.3171 1.0961 -3.6654 0.2877 2.0165 1.8468 0.1980 1.7914 1.9154 1.9881 1.2720 -0.0244 1.2661 -0.6740 -1.9027 -0.5642 2.2542
1.8228 1.4251 0.2058 1.3816 0.1752 -1.5923 1.1161 1.5914 1.8221 -1.3944 -0.9225 0.0104 2.6109 0.8034 -0.1150 -1.8465 1.3811 2.9397 0.8136 0.5900 1.5569 2.8711 6.8422 1.2651 6.1044 1.2783 5.9469 7.8816 7.4750 3.1670
4.8737 0.5913 0.4758 1.9166 -0.0302 -1.2039 1.2591 3.7259 2.2975 0.0458 -0.9815 -0.5176 3.5785 1.1503 -0.9537 0.5216 2.0380 3.3242 -0.6994 0.2399 1.7357 3.5251 6.1672 0.6053 6.9329 2.4485 6.8737 8.5716 7.7522 3.7528
2.4913 -0.0019 0.3984 1.7741 -0.7201 -2.1632 0.6951 4.4121 1.9228 0.6481 -1.5368 0.3112 4.0436 1.1265 -1.0998 0.0249 2.5413 3.4067 -1.7524 -0.4817 2.8505 3.5166 1.0298 0.0635 1.5521 4.0014 1.3167 -0.1015 0.5442 3.8283
-1.9851 0.3437 0.1169 1.5519 -1.0491 -2.0454 -0.0692 3.1946 1.6000 -0.5793 -2.6190 1.4772 3.5765 0.8420 -1.4562 -2.0277 2.2468 3.0577 -1.3450 -0.9082 3.1243 2.4375 -1.8604 -0.3365 -2.8207 3.6526 -3.4065 -6.4682 -4.6126 3.3440
-3.4755 1.0305 -0.1361 1.5399 -0.8809 -1.0045 -0.2527 2.1011 1.4554 -2.3261 -3.0881 1.2427 2.6582 0.4423 -2.0332 -2.1644 1.1395 2.3987 -1.0149 -0.8459 1.9504 1.6412 0.9514 -0.5642 -0.7074 1.7303 -0.5095 -1.4454 -0.6989 2.6821
-2.2175 1.9773 -0.2605 1.1078 -0.6889 -1.1275 -0.0241 1.8878 1.1089 -2.2825 -2.4641 0.6371 2.0556 -0.0097 -1.8600 0.2589 0.3558 2.0411 -2.3036 -0.6265 0.6847 2.1723 5.2097 -0.3022 4.2323 0.4351 6.2145 8.4921 7.0120 2.3054
-1.6586 2.6502 0.0020 0.1193 -0.4570 -1.3338 -0.0944 1.1119 0.6887 -0.8165 -1.4241 -0.2171 1.3904 -0.3396 -1.1856 2.2530 -0.0662 2.0349 -3.9094 -0.6946 0.0710 2.4755 4.5156 -0.1391 4.3385 -0.0806 6.1538 8.2537 6.7017 1.8623
-2.5777 1.3625 -0.1556 -0.7423 -0.1144 -0.3595 -0.9544 -0.4810 0.4748 -0.2915 -0.7961 -3.0431 0.3098 -0.2714 -0.9462 0.6394 -0.9437 1.7442 -4.0562 -1.0552 -0.1576 1.4230 -0.5955 -0.7025 -0.9218 -0.8929 -1.7200 -3.3567 -2.4055 0.8120
-2.3283 -1.7894 -1.4538 -1.3921 -0.1359 -0.0990 -2.1217 -1.6936 0.2729 -0.9583 -0.9124 -5.7166 -0.3581 0.2434 -0.7092 -3.1297 -1.5359 1.1997 -2.8836 -1.2387 -0.0555 0.5709 -3.0151 -1.0897 -3.9221 -1.3819 -6.0956 -10.0021 -7.4923 -0.4660
-0.2161 -3.5554 -2.6073 -2.1616 -0.4864 -0.8908 -2.5557 -2.3129 -0.0946 -0.8367 -1.0880 -4.6879 -0.2956 0.7874 0.1811 -3.8479 -0.9485 0.9913 -1.6098 -0.9495 0.0864 0.9417 0.4328 -0.5287 -0.1406 -0.9479 -0.8358 -2.3531 -1.4832 -1.1367
1.0556 -2.6839 -2.2061 -2.7399 -0.5222 -0.4594 -1.9871 -2.7363 -0.4575 0.5454 -0.3728 -2.3373 -0.5574 0.8694 1.0868 -0.5248 -0.3863 0.8542 -1.2391 -0.2641 -0.4770 1.0896 4.2210 0.0388 5.1670 -0.9913 5.6802 7.7706 6.3418 -0.9590
0.9092 -2.4956 -0.8733 -2.6706 -0.3814 0.5978 -0.8782 -2.4992 -0.7621 1.4563 0.7140 -2.1009 -1.4003 0.6186 1.6054 1.3559 -0.6838 0.4247 -1.3996 0.7164 -1.0137 0.3339 2.6379 0.0421 4.7213 -1.5211 4.1269 6.0820 5.0542 -0.3767
1.2752 -4.2936 -0.1893 -1.7885 -0.4872 0.0764 0.1910 -1.1821 -1.1019 0.9969 1.0515 -1.9794 -1.7450 0.5161 2.0790 -0.9109 -0.6594 0.3691 -0.7561 1.8170 0.2315 0.1645 -1.9110 0.3543 -0.5077 -0.4671 -2.2311 -3.5907 -2.3947 0.1359
1.2561 -4.5038 -0.5067 -0.1998 -0.3391 -0.7266 0.7805 0.3712 -1.3516 0.1318 0.8128 -0.5394 -1.5795 0.5624 2.1762 -2.4820 -0.0113 0.8079 0.3954 2.7795 2.2899 0.9920 -2.7397 1.2308 -2.7384 1.4634 -3.7732 -6.7548 -4.8585 0.6402
-0.1964 -2.0296 -0.6471 0.9712 0.2809 -0.1195 1.1695 0.9478 -1.3846 0.0522 0.5213 -0.3484 -1.9879 0.4695 1.8256 0.0885 0.0075 0.7433 0.7261 3.4220 2.5447 1.5088 1.5686 1.9448 1.9806 2.1864 2.1853 1.4375 1.5597 1.4212
-0.4488 -0.3409 -0.0468 0.4696 0.6041 0.2457 1.7749 0.3755 -1.4309 1.0643 0.0315 -1.8391 -2.9659 0.2058 2.1187 2.8063 -0.7970 -0.0078 0.9514 3.2083 1.5782 1.3979 5.0255 2.0515 7.8798 2.8047 8.8599 10.7961 8.8025 2.0438
-0.0175 -0.3106 0.3801 -0.8654 0.4747 -0.6731 2.0182 -0.5587 -1.6779 2.2060 -0.4391 -2.1686 -3.7063 -0.1436 3.0334 1.5800 -1.5307 -0.7588 2.0647 1.7647 1.3502 0.9581 2.2659 1.2717 6.7965 3.6467 7.6080 8.7423 6.8368 1.7290
-2.9247 0.2184 0.3342 -1.3771 0.4182 -1.3850 1.4459 -0.9439 -1.6986 2.1992 -0.4424 -0.4383 -3.6360 -0.3491 3.1200 -1.4263 -1.6094 -1.1136 2.6352 0.4777 1.3045 0.1563 -3.4785 0.0344 0.2958 2.7448 -0.9610 -2.9369 -2.4397 1.0463
-6.6222 0.7458 0.4725 -1.1686 0.4241 -1.3238 0.7764 -0.2723 -0.9940 1.2959 -0.3385 1.0413 -2.3010 -0.1308 2.2943 -1.8358 -0.7393 -0.6067 1.7761 1.0322 1.0113 0.1335 -3.9857 -0.0678 -1.8296 1.7306 -4.5677 -7.3771 -5.5791 1.2963
-5.7021 -0.1622 0.5388 -0.7174 0.5539 -0.9798 0.5657 1.1461 0.0045 0.6732 -0.4171 0.3279 -0.4365 0.0546 1.7009 0.8931 0.3780 0.5959 0.7954 2.2292 1.1233 1.5466 1.8469 1.0815 3.1885 2.7929 3.4547 3.6225 2.9926 1.9010
-2.3006 -1.3599 -0.1153 0.4651 1.1181 -0.1952 0.4632 2.2312 0.4114 0.6322 -0.2950 -1.6728 0.1636 -0.5662 1.2309 2.6064 0.1826 0.8445 -0.0551 1.7500 0.6237 2.2245 5.4855 1.3092 6.7078 3.0924 11.3319 14.4415 10.8921 1.2882
-0.6770 -1.9854 -1.0737 1.8560 1.5627 0.3039 0.0361 2.1062 0.1388 0.5376 -0.1620 -3.0759 -0.4691 -1.5152 -0.0824 -0.4426 -1.0672 -0.3853 -1.5141 0.0597 -0.7312 0.7907 1.3201 -0.1594 2.5665 1.2675 6.8775 8.7538 6.3812 -0.0140
-0.1151 -2.6160 -1.5832 2.0918 1.4011 -0.6047 -0.6568 1.1279 -0.2475 -0.5211 -0.6900 -3.3423 -0.7120 -1.6469 -2.1527 -5.7254 -1.5827 -1.2132 -2.6407 -1.0917 -0.8810 -0.9296 -5.3195 -1.8950 -4.4203 0.2384 -3.4298 -5.4118 -4.2679 -0.5879
0.9955 -3.0866 -1.3432 1.6209 1.3977 -1.6751 -1.0435 0.4835 -0.3670 -2.5036 -1.7939 -2.4438 -0.4354 -1.2649 -4.2594 -7.5411 -1.3087 -0.8497 -2.7991 -2.0485 -0.0795 -1.5686 -6.6298 -3.4790 -6.6098 0.1832 -6.4197 -9.5655 -7.7153 -1.0420
1.9866 -2.9035 -0.3497 1.7668 1.9023 -1.3949 -0.7620 0.5185 -0.0996 -3.6991 -3.0199 -0.6218 -0.3961 -1.5830 -6.0989 -5.2400 -1.2574 -0.7132 -3.2669 -3.8928 -0.6012 -1.7593 -2.7998 -5.4248 -3.2950 -1.0586 -1.1728 -1.3996 -2.2303 -2.4503
1.2578 -1.6743 0.7911 2.1793 1.9897 -0.9954 -0.3856 0.5754 0.4151 -3.0774 -4.0551 0.6997 -0.2340 -2.4357 -7.2227 -2.7423 -1.1428 -1.1565 -3.9661 -5.7589 -1.9111 -2.0218 -0.2977 -6.8404 -0.1176 -2.9751 2.7545 5.1583 2.2789 -3.9322
-0.7232 0.4203 1.1385 2.1026 1.4019 -1.8746 -0.4553 0.6609 0.7481 -2.0942 -4.3584 0.7760 0.3806 -2.6208 -7.1699 -2.3627 -0.5859 -1.1998 -3.2753 -6.0161 -1.9747 -2.3486 -2.9890 -6.5365 -1.4825 -3.9017 -1.2222 -0.1252 -1.6325 -4.0525
-0.1722 0.7779 0.9783 2.0255 0.9532 -3.3260 -0.3282 1.2582 0.7054 -2.1121 -3.7204 0.8267 0.9098 -1.9539 -6.4993 -3.4757 -0.0544 -0.9985 -1.6579 -4.7140 -0.8987 -2.4235 -7.3042 -4.9685 -5.0760 -3.3054 -8.5233 -10.7003 -9.0602 -2.6540
3.1841 -1.9668 1.7119 2.0804 0.7699 -4.2710 0.7229 1.7874 0.4235 -2.3429 -2.8140 1.4150 1.0951 -1.2896 -5.8623 -3.7253 0.4436 -1.0492 -0.9286 -3.2237 -0.0550 -1.4655 -6.6575 -3.1578 -4.6719 -1.7322 -8.6635 -11.3543 -8.7636 -0.7065
3.3033 -3.6236 3.1145 1.6078 0.4630 -4.0919 1.9057 1.4789 -0.0704 -1.8798 -2.3346 1.3582 0.9932 -1.1444 -4.8630 -1.0358 0.9247 -0.7660 -1.4623 -2.3283 -0.1039 0.3649 -0.8757 -1.4419 1.1025 -0.8633 0.0184 0.5491 0.7583 0.3680
-1.2378 -0.9059 2.8493 1.0385 0.3604 -2.6440 1.8017 0.8790 -0.6277 -1.0545 -2.3701 0.1232 0.4864 -1.2831 -3.2745 2.2055 0.6231 -0.1531 -2.5010 -1.8278 -0.6617 1.4918 2.6990 -0.2500 5.5791 -1.5873 6.7642 9.9075 7.8202 -0.1013
-4.0424 2.6388 0.3865 1.2391 0.6562 -1.3509 0.4932 0.8326 -0.8030 -0.1960 -2.5052 -1.2523 -0.1235 -1.2503 -1.9227 1.2368 -0.2468 -0.2173 -2.8384 -1.4766 -0.6985 1.2332 -0.2777 -0.2601 2.8637 -2.3959 3.4258 4.8135 3.6012 -1.2381
-2.6774 2.9436 -1.4218 1.5325 0.8475 -1.4601 -0.6001 1.1029 -0.5801 0.4071 -1.8125 -1.7156 -0.2522 -0.9798 -1.4288 -2.2092 -0.2458 -0.7640 -1.7452 -1.0471 0.0971 0.7539 -4.8567 -0.9541 -2.9487 -1.8718 -4.3293 -6.8813 -5.5887 -1.7716
-0.9525 0.7678 -0.7329 0.7555 0.8927 -1.3847 -0.6838 1.0206 -0.5570 0.0986 0.1527 -1.4162 -0.0679 -0.7677 -1.1134 -1.5984 0.5789 -0.6350 -0.2774 -0.0381 0.6342 1.0177 -4.0204 -0.8285 -2.9236 -0.6173 -5.2469 -8.6257 -6.8779 -1.2706
0.0545 -1.6149 0.7276 -0.8754 0.9574 -0.0625 0.0129 0.5882 -0.9934 -0.5468 2.0270 -1.0545 -0.2727 -0.6635 0.1484 2.3341 0.8295 0.0163 0.8264 1.3070 0.4145 1.6818 1.5216 0.2732 3.4476 0.4277 2.3109 2.2191 1.7120 -0.1033
1.3962 -2.4515 1.2315 -2.0690 0.5483 0.1407 1.1450 0.2551 -1.4315 0.1563 2.3160 -0.5264 -0.9824 -0.4655 2.1827 2.8258 0.5540 0.1317 2.5185 1.9620 0.4643 2.0505 4.4437 1.0367 7.5997 0.8884 8.0009 10.5625 8.3862 1.0794
1.6893 -0.7182 1.4611 -1.7904 -0.2607 -1.4065 2.3089 0.3235 -1.4836 2.0631 2.0358 0.5067 -1.5192 -0.2275 3.6722 0.1689 0.7981 -0.2723 4.1550 2.0498 1.1765 1.8086 0.9823 1.1946 5.0707 0.7844 3.8600 4.8701 4.3547 2.2155
1.8307 1.1761 2.1317 -0.2965 -0.3815 -1.7205 3.0581 0.9777 -1.2760 3.1839 2.9737 1.4088 -1.3453 -0.2388 4.3150 0.6410 1.3810 -0.4318 3.8719 2.6000 1.7669 1.2911 -3.9493 1.7150 1.0615 1.1901 -3.5765 -5.6513 -3.3436 3.5804
