Fp1 Fp2 F7 F3 Fz F4 F8 FC5 FC1 FC2 FC6 T7 C3 Cz C4 T8 CP5 CP1 CP2 CP6 P7 P3 Pz P4 P8 PO9 O1 Oz O2 PO10
1.0031 7.9719 4.9781 5.2140 3.3156 2.1898 2.7976 2.8495 -1.8655 0.5516 0.8261 -0.0424 -0.2612 -1.9634 0.8953 -2.3191 -1.1230 0.5274 -2.4338 -0.9196 -2.5513 -0.4814 -0.7522 -3.0993 1.3888 -3.3592 -4.9942 -4.0499 -10.3467 -7.1152
-0.4648 10.7381 2.5195 5.9538 3.1437 2.6392 1.5128 1.9353 -2.4132 1.6188 -0.8872 -1.2179 -1.1318 -1.7132 1.2932 -0.8564 -2.1426 -0.2772 -1.0530 1.4530 -5.3656 -1.8322 0.3017 -0.1351 4.6004 -9.6727 0.2112 6.0455 2.9331 6.0793
-2.2384 11.9478 1.6852 3.4482 2.0006 3.0721 2.2175 2.5699 -3.1549 1.0162 -1.7890 -1.4581 -2.8252 -2.4328 0.1477 -1.8666 -3.0988 -2.7520 -2.0788 -0.9647 -8.6989 -6.0731 -4.1301 -4.6751 -3.5057 -12.8517 -4.2363 -0.5710 -2.1162 3.0578
-2.1110 9.2837 3.6948 0.9658 0.7463 3.2474 2.3206 3.6145 -3.3584 0.6223 -0.2888 -0.4187 -2.4922 -3.1253 -0.4124 -0.8131 -2.6668 -3.4857 -3.5424 -2.3278 -4.9377 -5.3114 -5.9323 -7.7728 -11.5050 -2.9719 -3.0878 -5.6918 -10.0101 -7.7991
-0.5144 3.2785 6.9515 1.4218 -0.0437 3.1907 4.2012 3.5611 -1.7617 1.6283 1.8434 2.0221 1.3083 -1.1789 1.7290 2.8020 3.1728 0.8979 -0.5577 2.4278 8.3706 5.1908 1.8521 -1.5792 -6.7050 19.8189 21.5839 13.8535 3.1884 -1.4658
1.1681 -0.2558 8.5643 2.6949 -0.3104 4.0254 7.3915 2.0385 -0.2180 3.3298 4.4333 3.6143 3.6504 1.1951 3.5412 4.2388 7.7084 4.1239 2.9076 6.9692 13.1699 10.8914 6.9723 3.2672 2.5443 27.7040 31.8836 25.1870 15.4497 12.1682
2.4884 3.7191 7.3505 2.5062 -0.1296 6.5632 5.4626 0.9064 -1.0069 3.2773 8.6335 3.4111 0.8859 -0.0745 2.1936 3.6427 2.4842 0.7373 0.9898 5.7416 -0.9116 1.1655 -0.3274 -1.5586 4.6001 5.3157 -0.6743 3.3594 5.9481 12.1508
1.9194 9.2173 4.3240 1.9192 -0.0706 7.4606 -0.1596 0.7956 -2.3938 1.4624 9.6715 2.9586 -1.9036 -1.9407 0.3514 2.6338 -3.2752 -1.7380 -1.3254 3.3599 -9.7377 -6.5786 -5.9734 -4.6079 4.8102 -6.6958 -21.8544 -7.5601 3.1224 13.7029
-1.8178 7.2679 1.9537 2.4653 -0.3381 3.4128 -1.6663 0.9941 -1.6335 1.3961 2.9185 1.8083 1.3609 0.7529 0.8972 -0.7591 2.9129 3.9380 2.2583 4.1967 7.9941 4.8699 3.0465 2.7638 9.4726 30.3445 13.8551 20.6370 24.0971 31.5680
-6.0331 0.9701 1.9494 3.0322 -0.4681 -1.5910 -1.2830 3.1753 0.1863 3.5062 -3.9242 -1.7029 7.3749 4.5843 2.0238 -5.7747 12.1581 10.4366 6.2179 4.0179 29.3846 20.3586 13.6336 8.5074 8.7818 74.1689 54.6447 40.9880 32.0461 34.1589
-6.2659 -0.2934 3.1111 1.6250 -0.1774 -1.9993 -3.1205 5.4864 0.0518 3.8890 -1.9530 -5.5945 7.3703 3.4041 1.8310 -5.9759 6.7791 7.4410 3.5015 0.3972 17.0925 14.6058 8.6814 2.6923 -2.7144 46.8199 33.5889 17.0754 6.6326 1.6464
-2.4593 4.5500 3.6355 0.2324 0.9194 0.9376 -0.8576 2.0556 -2.1561 1.9051 3.5113 -6.8843 0.1069 -1.0696 1.4567 0.5372 -10.6994 -2.4963 -2.2499 -1.7768 -22.3406 -9.0892 -5.8055 -6.2141 -12.9296 -40.8579 -28.9797 -20.7882 -18.9015 -27.5482
0.4903 9.0732 2.7851 1.9073 2.3172 3.1801 5.1545 -3.6445 -3.7620 0.9377 4.8472 -6.2027 -5.8025 -3.5036 1.7345 5.2921 -20.6430 -8.7462 -4.3049 -0.6173 -44.4973 -24.2580 -12.9918 -9.0356 -13.9166 -89.7860 -62.1516 -35.0851 -21.5337 -22.4835
-0.4048 8.9451 0.4587 2.9539 1.7559 3.2598 4.2383 -3.7835 -3.5881 1.5855 3.9533 -4.3722 -4.8048 -2.7449 2.3222 3.1995 -14.6063 -6.7740 -1.9221 1.4392 -30.9477 -17.7437 -8.2693 -6.3980 -10.0236 -59.4530 -41.2902 -25.4735 -15.6875 -4.4446
-2.4644 5.4669 -0.9850 -0.0528 -0.5922 1.7355 -0.6645 -1.2656 -2.7285 1.9255 3.0934 -1.2327 -0.7879 -0.4645 3.3914 0.7527 -3.8021 -1.0274 2.2794 4.5294 -8.1711 -2.3718 1.2682 -0.3819 -3.9375 -13.7175 -4.9147 -7.3644 -9.7099 2.5494
-2.6523 2.8755 0.7593 -1.1640 -0.9875 0.7351 1.5674 0.1085 -1.3187 2.4184 2.4690 0.3019 2.1276 2.1517 5.3746 2.2559 0.4671 3.3020 6.5065 9.2050 0.2043 5.5276 8.9436 7.8192 5.4648 -3.0955 9.8337 10.7174 7.8204 8.8112
-1.8467 3.7622 3.2935 2.1090 0.7643 1.6821 5.5187 2.8481 0.5289 4.4179 5.3281 -1.1976 3.7151 4.3467 8.0894 5.2442 -0.2614 5.1422 9.6311 13.5709 -0.9818 4.8998 12.0540 14.3674 15.3812 -9.2281 8.4981 24.0746 32.4102 25.6825
-1.3463 6.6566 4.0383 2.2868 0.7475 2.4618 1.6347 3.7827 0.5953 6.5792 10.0020 -0.8565 3.1177 5.2181 9.5190 8.5330 0.0744 4.9708 9.5625 14.0278 0.0462 3.2022 9.6589 13.1968 16.2361 -2.9340 9.0959 21.7003 30.8497 29.6351
-0.6913 8.9993 4.2974 -0.5854 -0.6689 1.0356 -2.8636 0.1178 -1.1226 6.2382 7.8875 3.4988 1.0694 3.9234 6.6174 8.0843 2.8974 3.4157 4.6522 6.8248 6.9142 4.1004 3.8249 2.2717 1.4142 21.8969 10.4184 -0.5749 -8.6408 -3.3678
-0.7555 10.0519 4.5920 1.2921 -0.0789 -1.0224 0.3434 -0.6499 -1.4624 2.9297 -0.9163 5.9011 0.9881 0.9464 0.4218 -0.0850 5.4256 2.0320 -1.7374 -4.1357 15.3472 6.4391 0.1589 -9.3223 -17.4212 48.9503 9.5959 -18.1300 -40.2488 -43.6393
-3.1036 9.2945 3.3567 4.3503 1.1293 -1.8300 4.5031 2.4710 -0.7582 -0.3930 -5.4801 2.4272 1.8935 -1.0022 -2.9374 -6.7704 4.0360 1.6530 -2.8533 -6.9786 15.4449 6.9892 1.4846 -9.1584 -19.5427 48.3301 11.9309 -6.8513 -22.8770 -40.4323
-5.3436 7.6664 1.2912 0.8943 0.5851 -1.4212 3.2256 1.1754 -1.9163 -0.5503 -1.4732 -2.1486 -0.0392 -0.3479 -0.3997 -3.2888 -1.6165 0.8981 1.3036 0.5320 3.9311 2.0485 2.7421 0.2342 -4.5978 14.9937 7.8614 10.2381 11.3790 -0.6727
-3.1203 9.1346 2.0838 -2.7735 0.7836 0.1590 2.7200 -1.1989 -3.4374 1.6648 4.5985 -1.5574 -2.4110 0.3306 3.6145 2.7640 -6.3213 -1.2889 2.9017 6.3288 -7.8545 -6.3284 -1.3030 4.3156 5.8935 -17.3940 -12.7627 -0.3994 10.0597 19.5723
2.3381 13.3304 7.5860 0.9137 2.7710 2.3476 7.6479 3.4081 -2.1901 3.0885 7.6462 4.4502 0.2996 -0.5325 4.8586 6.0383 -3.6179 -1.9837 0.4160 5.3297 -5.7532 -6.8654 -4.3805 0.9027 1.7377 -18.2289 -21.4354 -16.0083 -13.0636 1.4938
4.8114 14.6968 13.2726 5.4379 2.9608 2.8373 11.8131 8.8804 0.2742 2.6722 7.6312 10.9656 6.5557 -0.0780 4.6413 11.1863 5.7269 2.0868 1.2963 5.8065 9.8043 5.4212 2.0031 1.9933 -2.2487 7.1881 7.3566 0.5848 -11.3855 -12.5495
2.8726 14.0889 13.1981 4.5733 1.3052 0.9532 10.7673 8.6112 0.8327 1.7549 5.0058 13.2187 9.6751 2.1125 4.2152 15.0044 11.8913 6.8003 5.7104 9.5596 20.5395 15.4771 9.7519 8.5711 4.6754 26.2714 33.4641 23.9626 9.4794 4.3817
1.6271 15.4528 8.4490 2.9704 1.8291 -0.1178 6.9886 7.2047 -0.0809 1.6435 1.6265 10.7562 7.8170 2.1913 1.8888 11.2501 8.4793 5.5952 5.3805 8.7625 13.5002 9.8590 6.4884 9.1618 11.0356 17.4132 15.4214 15.8616 14.0370 22.4679
2.7926 13.9316 3.6901 3.2416 3.6284 1.6775 1.4940 6.2629 -0.8016 2.0826 0.7745 6.8988 4.6766 -0.3114 -2.0009 4.9373 2.4463 0.7642 0.2023 3.0430 1.9189 -0.4101 -1.5329 3.2025 7.4592 -1.4268 -11.8519 -1.9685 5.5715 16.4851
3.1677 6.4275 1.2316 2.2124 2.6738 3.3423 -2.4519 3.5359 -1.4675 1.6000 1.7330 5.0050 2.7553 -2.3619 -4.5004 1.7002 2.4774 -1.4221 -2.9158 -1.2026 2.1537 -0.7781 -3.4680 -0.7504 1.4794 -3.9034 -9.0966 -2.7710 1.8081 3.2685
3.0093 0.9802 2.2345 1.5563 0.4563 1.8445 1.7660 3.4280 -1.9758 -0.1944 0.9902 5.4165 2.3044 -3.3122 -4.3555 0.5650 5.5796 -1.1090 -3.2837 -2.6971 6.6308 3.6359 -3.0232 -2.0514 -0.5022 2.5345 -0.0651 -2.8659 -3.4585 -0.6947
4.1497 0.7480 4.3521 4.2461 0.4066 -1.0051 9.1615 7.3787 -1.5899 -1.3640 -0.4537 5.3807 3.3963 -3.4117 -1.8754 2.0792 5.1691 -0.5008 -2.7558 -1.5862 3.8915 4.0624 -3.8068 -1.1543 2.2007 -0.6037 -4.3450 -4.3716 -2.0262 6.1870
4.3538 -0.7246 3.1774 5.9282 0.9757 -2.1575 8.9297 7.6860 -1.2624 -0.1188 0.6817 3.4553 4.7841 -1.5056 2.1757 6.9389 2.8941 1.2854 0.4056 4.0157 0.2470 3.2516 -1.0085 5.6532 12.3558 -6.7554 -1.6118 11.7697 24.2631 27.8111
3.3138 -3.1020 1.4147 3.7313 0.2300 -1.4025 4.2315 2.9534 -1.7550 2.0997 2.5795 2.2027 4.6748 0.9615 4.6583 11.0089 2.9761 2.6851 3.6844 9.3071 1.8433 3.3460 2.0224 10.9186 22.4320 -3.7686 8.0389 23.5579 41.1715 45.5937
4.2553 -1.0243 3.8299 2.4913 -0.1612 0.2699 2.8125 1.1280 -1.5481 2.6156 2.7108 3.5285 3.8503 0.7882 3.3169 10.6196 4.0745 0.9472 1.6723 6.7579 3.2229 2.1244 -2.1209 3.8138 16.8167 2.9445 4.6210 4.5648 12.0367 26.0872
5.2564 2.0333 7.1297 4.3050 0.1345 1.9367 2.2830 4.1271 -0.1550 2.0632 3.5518 5.5200 4.7237 -0.3960 1.7624 7.2979 5.5851 0.4733 -1.3969 0.7072 7.1602 5.2449 -5.1050 -4.9373 1.1133 16.6958 7.3052 -6.2143 -16.1750 -9.5412
1.8233 0.4965 6.7354 5.1047 -0.7486 1.6892 -0.7801 6.3707 0.4592 2.2149 4.7492 5.4710 7.3759 0.9656 3.4150 4.5958 10.3751 5.8521 1.7776 0.3118 22.3654 17.4978 3.0993 0.0411 -3.8740 50.5598 39.0235 23.8098 5.4882 -4.9727
-3.3572 -2.2579 3.0144 3.2578 -2.0003 -1.1089 -4.1811 5.6050 -0.2761 1.9265 1.3463 2.4498 8.8042 3.1608 5.6761 3.5588 14.1097 10.6390 7.1899 3.6429 33.5138 25.1606 12.3022 10.1027 3.5505 73.6286 59.3126 47.6311 36.6754 33.3235
-4.6786 -1.1182 -1.7491 1.3764 -1.2636 -2.9804 -5.2902 3.8687 -0.4920 1.3126 -4.0580 -1.0731 7.2738 3.4670 6.3929 2.8269 9.4441 8.2428 7.7945 4.3989 19.7637 16.0321 11.1014 11.3762 8.4408 41.6359 31.6260 29.0812 32.7888 44.6412
-2.4395 2.1613 -3.3095 1.3078 0.8058 -0.6625 -3.2999 2.4120 0.2870 2.8935 -3.5724 -0.6536 4.6134 2.8322 6.2570 1.6522 1.4183 3.4292 4.4609 2.0510 -1.8388 3.2036 5.5753 5.8868 1.8682 -10.6508 -1.7956 3.3701 9.7031 5.9807
-0.1159 3.2301 0.7322 1.9384 1.8597 3.4874 0.6441 0.6501 0.1469 5.0401 1.7739 2.0903 1.9205 1.5462 4.4029 0.8842 -3.0145 0.4977 0.2012 -1.9701 -7.6721 -1.0662 1.2618 -1.3898 -11.9392 -25.9757 -6.9369 -8.2701 -14.2987 -42.1758
0.6138 1.7046 4.9453 1.2919 1.4566 4.9316 3.5451 -2.1040 -1.3083 4.9220 4.8341 -0.1376 -1.2963 -0.2477 1.8421 0.8660 -7.6195 -2.8665 -2.5132 -4.7718 -8.9486 -4.7675 -3.9777 -6.8923 -18.0325 -21.8093 -13.8161 -21.3968 -31.4365 -49.8106
-0.6427 0.8680 4.1693 0.0187 0.5335 3.3238 3.2721 -4.1425 -2.0639 4.7112 2.9263 -6.1046 -2.8719 -0.0150 1.7022 -0.4577 -11.3336 -4.8894 -1.3822 -3.8579 -12.8471 -8.9157 -6.6141 -6.2211 -11.8383 -19.0543 -26.6294 -27.8146 -29.5343 -25.1949
-2.4720 2.7887 2.0194 0.6269 -0.2415 2.2514 1.7804 -1.9892 -1.5004 5.1455 -1.5488 -5.7972 -0.6149 1.2709 1.7985 -4.6086 -6.8511 -2.3171 0.0893 -3.7479 -5.7401 -4.4963 -4.2408 -4.3938 -10.6332 2.6562 -17.3626 -19.8563 -24.0570 -21.1100
-1.8773 5.3267 2.9119 3.4749 -0.0822 3.8151 3.6357 4.5752 -0.6416 3.4040 -3.3940 1.2435 3.1557 -0.0248 -0.2997 -7.7757 0.5343 0.9137 -1.5724 -6.5146 3.9859 2.3224 -2.1823 -6.3428 -18.4508 21.4973 -4.1337 -17.6422 -31.6282 -39.9029
1.0701 5.7515 5.4043 6.0224 1.2699 5.8687 8.3604 10.2707 0.3145 1.5701 1.0262 4.8484 4.8072 -1.4209 0.2887 -3.7027 1.2397 1.5629 -0.9144 -4.1982 -2.5318 1.6868 -0.5502 -3.8615 -15.2390 -2.2129 -13.2605 -20.4130 -28.5298 -34.9694
2.7086 4.6998 6.6984 4.9862 2.0383 5.5077 9.1584 9.0163 0.7398 3.4125 7.0618 2.8251 3.4015 1.3354 5.6678 7.0556 -1.2737 2.3208 5.4268 4.9073 -13.3942 -0.9436 4.1380 5.6860 0.5540 -35.1702 -23.8193 -11.0689 -4.9313 -7.0860
1.4756 3.7867 5.5032 0.2212 0.8202 2.9739 4.5519 1.8916 -0.1247 5.5114 6.5481 2.6828 1.3895 5.5221 8.8591 15.0001 0.0701 4.5413 10.9005 10.4639 -9.0303 1.0240 8.6834 11.6787 9.2936 -27.4937 -15.3191 1.9384 10.5162 6.9245
-0.6194 4.6984 3.5556 -3.1513 -0.3792 1.6076 2.0780 -2.3612 -0.5559 4.2067 1.7566 5.6912 1.5373 6.5998 6.1992 12.6721 3.8197 6.0496 10.8990 7.7693 3.4222 4.5020 9.8047 10.2326 7.7352 2.7895 0.8519 6.9534 8.7245 7.2426
-2.4038 9.5077 4.8248 -1.6453 0.4463 4.2419 4.5633 0.1765 0.0783 2.8531 2.4293 5.3257 1.7537 4.5507 2.9197 4.1935 4.3651 4.9033 7.9987 2.6298 6.9052 4.9130 8.5922 6.8007 5.9923 13.0829 8.8989 9.3752 7.1446 11.2087
-4.1655 14.4743 7.4300 1.1106 1.5845 7.5417 5.8978 3.3719 -0.6164 3.2789 6.4855 1.0815 -0.2434 1.5794 2.2172 -1.6404 1.3963 2.1716 4.7886 -0.6278 1.8957 2.9699 6.1356 3.9657 5.0946 3.3455 6.9223 10.9507 9.9302 14.7461
-4.2653 12.2259 5.9117 1.9467 1.3008 5.2801 4.0639 4.2536 -1.7771 2.3889 3.0710 -0.0377 0.0313 0.1472 1.5131 -2.3456 1.7268 1.8485 2.3996 -2.1623 2.3198 3.7323 4.4648 1.8997 2.4746 2.6583 6.3829 10.0770 9.8777 11.7924
-1.4594 6.1522 2.7604 2.3427 0.9207 -0.0500 3.5455 6.4157 -0.3631 0.9855 -4.5515 3.6328 4.3639 1.4401 0.5700 -0.8620 7.2819 4.3518 1.9244 -1.9557 10.6914 7.4849 4.7938 1.1423 0.8149 16.2793 12.6415 10.0855 6.9247 8.8595
1.2990 6.8631 3.1824 2.1755 1.5185 -0.7166 6.2229 8.1078 1.4700 2.0490 -4.3650 7.1303 5.8253 2.8756 1.5592 -0.2765 9.3201 4.2981 2.1054 -0.6739 13.2159 6.8356 3.4085 0.1913 1.2024 18.6244 10.6181 7.5210 3.4612 9.0404
1.6044 12.6049 5.2594 0.2326 1.9697 2.2981 10.0553 5.3702 0.6839 2.9315 1.8423 9.4969 2.8654 1.8811 2.8798 -1.3462 5.4362 1.0691 1.1484 -0.2683 7.6376 2.2775 -0.6508 -1.6859 0.5623 6.7692 -1.1332 0.5645 -0.4429 5.4954
1.1602 12.5095 5.4965 -1.4529 1.2038 3.0034 10.7377 1.9146 -0.5577 1.7600 4.8668 11.8910 2.5491 0.8377 2.8957 -1.2909 5.1860 1.2725 1.4005 1.2454 9.5012 4.7927 -0.1437 0.4226 2.1743 10.5749 3.5302 5.7243 4.3805 5.0718
0.9026 6.2226 3.2891 -1.1789 -0.2084 1.4636 4.8768 1.0874 -0.2908 2.2289 3.8396 10.1022 5.2202 2.5364 4.2884 2.7253 9.2575 5.5488 5.8249 8.3157 17.9721 13.3038 7.7755 10.8726 15.1920 27.2679 22.6607 29.7098 31.2983 32.1740
-0.0447 1.7420 -0.7853 0.5059 -0.8041 0.0477 -3.2858 0.8548 0.4026 4.0447 1.1217 3.1819 5.4424 4.7508 7.0509 7.7211 8.9249 7.6240 10.8897 16.8685 17.2271 15.4008 14.2231 21.6569 32.4845 26.5502 25.4773 46.2393 62.1246 73.2734
-0.6350 0.9771 -3.0729 3.1203 -0.2991 -1.5416 -6.7756 3.4284 1.4655 2.7062 -1.9295 -0.0137 5.3780 4.6310 6.5958 7.0430 8.1756 7.6943 10.6203 16.6887 15.9325 13.9225 13.4616 20.0055 32.3974 26.9821 24.2531 39.4357 56.1850 74.0146
0.0158 2.3846 0.3066 4.7874 0.1759 -1.6827 -4.9610 10.8942 2.9191 0.2490 -0.7126 4.4690 8.5120 3.2627 3.4862 0.1859 14.3412 9.5299 6.3645 8.6589 27.8492 18.6886 10.7869 9.4905 16.0460 53.9310 44.2826 29.9004 20.8105 34.4253
-0.1222 7.1845 6.3710 2.8922 0.4294 2.1838 0.2081 13.5452 2.6547 1.3600 6.1085 7.6101 8.8315 2.2590 3.0207 -4.6370 16.0693 8.7375 3.9024 3.4773 29.9903 19.1956 8.4689 3.9388 5.8450 57.0816 47.0441 26.4066 5.0560 8.7921
-2.1926 12.6714 8.9008 -1.1471 0.7804 6.3388 5.7935 4.8967 0.2893 3.5544 10.5572 4.2310 2.9129 1.5060 4.4506 -2.4231 5.3413 2.3433 3.6444 2.8470 7.9016 6.0140 3.0242 3.5474 3.3926 8.4745 8.5137 13.2263 10.3767 -0.4305
-3.6325 12.5129 7.4010 -3.2088 0.3590 5.1319 6.3296 -3.0002 -1.2169 2.6877 7.0740 2.7905 -0.3091 1.2353 3.0416 0.6605 -0.5286 -0.9452 2.3648 -0.2851 -1.7844 -1.9628 -1.7953 -0.1020 -5.8972 -9.0919 -9.5303 -4.0652 -3.1845 -25.5582
-1.9139 8.2449 5.9386 -2.1386 -0.2573 1.4971 3.5969 -0.6001 -0.5789 0.1818 1.7372 8.4659 3.6122 1.0771 -0.3225 -1.9443 7.7589 2.6421 -0.2030 -6.8878 17.6505 6.2256 -1.4217 -6.1969 -18.5229 40.0513 14.6513 -11.2644 -33.9722 -50.5854
1.0472 6.3563 5.4011 -0.5970 0.8015 1.7325 5.1951 3.1080 -0.3672 -1.4293 1.1329 11.4340 4.9441 -0.8575 -2.1516 -7.0152 10.2033 2.7711 -3.0000 -11.7114 21.6382 7.5797 -2.4780 -10.2242 -22.1955 51.6914 10.3180 -20.5467 -47.9731 -48.4483
1.1994 6.0995 2.7770 -1.6003 1.5284 3.3559 8.1227 0.9114 -2.2414 -2.4154 1.5548 4.5998 -0.8417 -3.8967 -2.9992 -8.8291 -2.1706 -3.9981 -5.4690 -11.8483 -7.9532 -8.1359 -8.1449 -11.8050 -17.4526 -18.2123 -34.8311 -34.7966 -39.1242 -30.9237
-1.2694 4.2915 -1.4807 -4.3913 -0.7530 1.5168 5.6744 -1.5922 -3.8152 -2.8981 -1.4281 -2.2278 -4.2406 -4.2335 -3.4560 -7.7436 -9.1566 -6.7384 -5.3745 -8.0723 -26.5160 -17.1036 -8.9411 -9.7257 -9.8995 -65.5066 -50.8913 -31.9475 -23.1482 -14.8263
-2.6784 4.3486 -2.0907 -4.1148 -2.5320 0.6662 2.7565 -0.8498 -2.5236 -1.5621 -2.2945 -1.3111 -1.0410 -1.2131 -1.3715 -6.6247 -3.0867 -1.9766 -1.7321 -3.4316 -15.4099 -10.2366 -2.4160 -4.2847 -2.5916 -40.6583 -28.5216 -14.2050 -9.6463 -4.2981
-2.6408 7.4249 1.5901 0.2432 -0.8700 4.6869 3.7450 0.5768 0.0498 0.8729 3.2799 -0.8234 1.1974 1.1547 1.9634 -5.9335 -0.5507 1.0290 1.7858 -1.6741 -7.5007 -5.9117 1.4841 -1.1505 0.7404 -16.0999 -18.0169 -8.0488 -4.5940 -3.6377
-3.2821 6.3547 3.1715 1.5594 -0.4200 6.4884 4.6743 1.1598 0.6509 1.2039 7.1737 -4.1988 -0.0337 1.0907 2.1682 -5.2420 -4.2946 -0.0640 2.7921 -2.5439 -13.1859 -7.4675 1.2340 -1.6208 0.1458 -23.8077 -23.0626 -14.0248 -8.0550 -8.5827
-3.8195 -1.2259 -0.5290 -3.4528 -3.8824 1.5920 5.0047 0.6667 -0.2545 -0.3855 2.4165 -1.7535 1.1059 1.9758 0.2143 -4.9773 -0.2352 2.3411 4.6248 -1.3707 -10.0636 -1.1150 5.6702 1.3127 2.0094 -22.9756 -14.5868 -9.6559 -6.4530 -5.1675
-2.9385 -7.4497 -5.6421 -6.8903 -6.0086 -2.9329 5.6399 0.0159 0.3682 0.3415 -4.0946 6.0346 5.2415 5.7154 0.4936 -5.4843 9.9819 9.0871 8.9748 2.8941 3.4986 10.2489 14.5378 9.4456 8.0281 -5.7139 4.5773 8.2865 8.5146 8.1423
-2.3269 -7.0022 -7.5199 -4.1345 -3.6800 -2.2700 3.5285 0.3598 2.0517 3.2445 -4.0866 7.3045 6.5393 8.3590 2.0332 -6.6535 12.4068 12.1853 10.9654 4.6525 9.5953 12.4066 17.5998 13.3489 10.2723 1.9115 12.7550 18.4582 19.7666 14.6348
-2.8840 -3.0369 -5.3337 -1.3212 -0.6433 -0.3618 0.0473 0.2983 1.7503 3.3397 -0.4125 2.6342 3.9374 6.5596 1.2884 -8.1144 7.3420 9.2001 7.7260 1.0922 6.6019 6.9118 12.2498 7.6520 5.2504 0.0169 7.2730 9.4865 9.7445 5.1791
-2.7837 -0.8863 -2.2457 -1.5690 -0.0453 -0.0548 -0.3892 -0.8540 0.2508 0.5672 0.8326 1.6025 2.4635 3.5974 -0.3132 -8.1298 5.2745 6.5222 4.4829 -1.9716 5.6880 5.4578 7.4088 1.7741 1.9136 4.0684 3.5909 -0.2095 -4.1901 -3.0614
-1.5208 -2.5671 -1.3064 -1.4283 -1.0725 -0.0349 1.3851 -1.7590 0.1395 -0.4359 -0.6629 3.9519 3.3901 3.2368 -0.2211 -4.9456 7.3918 7.1426 5.0755 0.0782 8.5987 8.5619 8.1979 4.0217 4.9837 11.7104 8.7794 5.7581 1.8485 4.7708
-0.6280 -4.7441 -1.3039 -0.9722 -1.9911 0.6969 3.0357 -1.7902 0.0815 0.9406 -1.8465 4.6898 2.7677 3.1223 -0.4439 -1.6684 7.3174 6.3213 4.7617 2.4027 8.7518 7.8938 8.0042 6.3136 5.2143 11.1141 11.2808 11.2040 11.4716 11.6277
-0.5025 -3.2757 0.0309 -1.8250 -1.9320 2.4617 3.8950 0.0904 -1.1299 2.4771 0.5636 4.5474 0.9695 1.3642 -1.1228 -3.0693 5.3821 3.1595 1.6105 1.5271 7.9440 4.6207 3.8735 2.5826 1.4926 9.6298 10.8743 7.4412 7.0167 7.0171
-0.7279 -0.4814 0.9516 -2.2763 -1.4322 4.3644 2.2097 2.6714 -1.1224 4.3394 6.5146 5.4886 2.5647 1.9535 2.5343 -6.2800 8.5338 4.3312 3.2539 3.8308 16.8218 9.4817 5.6693 4.6544 9.3081 31.0397 27.9914 21.7058 16.2085 18.1645
-1.2068 -0.5895 -1.1436 -2.1091 -1.6956 3.6477 -2.0588 1.7428 0.1837 5.9567 8.8170 6.9255 5.9455 5.7402 8.6959 -5.3882 15.7208 9.9977 10.5692 10.7356 31.5505 21.0248 14.6068 15.5336 26.8084 65.4786 53.4262 52.1380 46.3841 47.3804
-0.7736 -1.5682 -3.4115 -2.1260 -2.4851 0.4900 -4.9408 -0.2613 0.2289 4.6362 3.0380 7.6998 5.7585 6.4463 8.6229 -1.5798 16.8364 10.7983 11.7470 11.7323 31.8575 23.2954 14.9309 16.0868 27.3408 64.5058 48.4553 49.7860 45.9407 44.2978
1.2501 -0.2785 -1.1608 -0.4837 -2.4770 -0.7940 -3.7234 2.3444 -0.3055 1.1023 -2.5649 7.0359 3.3435 2.1536 3.2133 1.5474 10.2636 4.7974 3.6131 4.2463 15.7248 12.6141 3.0379 1.8528 6.4087 22.2627 17.3983 10.5504 2.4857 -0.2831
2.8126 2.0762 3.7036 2.4830 -1.1144 1.5461 0.1339 4.8870 0.1171 -0.8160 -0.6259 5.3942 2.3858 -1.5264 1.2686 3.1948 4.2760 -0.0710 -3.0069 -1.3292 2.4353 1.7543 -5.9246 -7.6062 -8.7238 -10.5464 -2.9918 -16.5153 -26.8505 -27.1316
2.3166 4.7067 5.4933 2.7954 1.1532 4.5566 3.4811 0.6756 -0.0411 -0.0398 3.0779 3.4699 0.7606 -2.1069 2.6962 1.3834 -0.0497 -2.0001 -4.0358 -2.0682 -4.4979 -4.4827 -7.4497 -7.2780 -7.3014 -18.4877 -14.6711 -20.8142 -22.1543 -16.5202
0.7708 6.6892 2.9255 -0.2851 2.7418 5.3874 3.5828 -5.2651 -1.4670 1.7586 2.5857 0.5998 -2.6829 -1.8315 2.2736 -4.0745 -6.2313 -4.6127 -4.2579 -3.2978 -13.9354 -9.3827 -8.6623 -7.7214 -3.1929 -29.0892 -31.1419 -23.2967 -14.6019 -7.4355
-0.9869 3.4085 -1.3922 -2.8448 1.8678 3.5505 0.3715 -5.1805 -2.0192 2.7743 1.1615 -2.2610 -2.6757 -0.7718 1.7215 -7.5253 -7.5397 -4.2540 -2.1852 -2.6505 -14.9624 -7.0048 -5.8576 -4.8990 0.8418 -29.8567 -26.0475 -12.8185 -3.5934 -1.9695
-2.9026 -4.6764 -4.5558 -2.3424 -0.4467 0.1978 -3.2010 -0.5511 -0.6923 1.8256 0.9417 -2.6107 2.3106 1.8206 3.2910 -6.4602 1.6502 2.6094 4.3671 2.7395 4.1413 6.1754 4.8547 5.8466 8.6862 8.0644 13.8510 17.3604 20.0388 20.4977
-3.6957 -8.1929 -4.1369 -0.6114 -1.0793 -2.0570 -4.9112 1.6939 0.7224 0.5244 -0.4956 -2.1917 4.8081 3.5823 3.7992 -4.7375 8.5220 7.2093 7.5867 5.3950 20.5060 14.2221 9.8177 9.4650 9.8160 42.5953 40.3418 28.2512 22.4918 27.5447
-2.3999 -4.3108 -1.0091 -0.8614 0.2534 -1.4781 -4.8273 -1.3282 0.4433 1.5748 -2.0455 -4.5515 0.7163 2.8706 2.7186 -2.4952 0.3451 2.2504 3.2307 2.6875 7.0811 4.0342 0.6453 0.4271 1.5598 15.1060 13.3783 1.3389 -4.4640 -1.4810
-1.0134 -2.5459 -0.4202 -3.8807 0.6692 -0.4930 -3.9849 -5.7267 -0.8168 3.1248 -1.7396 -7.3970 -3.8409 1.9678 2.5686 1.3844 -11.9642 -3.6097 -0.2334 2.5530 -19.6438 -10.2097 -7.5174 -3.7863 -0.1363 -40.6361 -30.6938 -22.2366 -12.7147 -14.3641
-1.6516 -7.5048 -4.6635 -6.8941 -0.5496 -2.3656 -3.8774 -6.7082 -1.0400 1.7067 -2.6286 -6.8338 -3.5456 2.5506 1.4792 0.1889 -12.3143 -1.4608 1.3635 4.0822 -25.5521 -10.1589 -3.7789 1.2702 5.0853 -51.7853 -38.3400 -15.8711 6.2262 8.6593
-3.2704 -11.7076 -8.4941 -6.3882 -0.8654 -5.1202 -4.7208 -3.9038 0.0564 -1.2099 -5.7514 -5.3540 -0.8117 2.5664 -2.3495 -9.6138 -4.8770 2.9773 1.3005 -1.1103 -11.4090 -1.7176 1.1550 0.8171 0.1452 -20.8857 -17.3286 -5.5908 6.9549 11.3018
-4.7772 -10.1589 -8.2321 -3.5948 0.2722 -4.9735 -4.9153 -1.0757 0.6879 -2.5608 -6.9383 -7.2631 0.5230 0.6970 -5.1886 -18.8806 -2.0392 2.3676 -1.8779 -8.6440 -3.0573 0.2797 -0.4185 -5.4865 -11.6139 -2.5555 -5.8184 -10.0381 -13.6216 -18.2896
-6.7795 -7.3964 -8.5711 -3.1632 0.2541 -3.4964 -4.7643 -2.7133 -0.1653 -2.5299 -5.7007 -11.0220 -0.3665 -0.6011 -4.5259 -19.8149 -4.4761 -0.4544 -1.7711 -8.5211 -8.3888 -3.9273 -1.2931 -4.5562 -10.8358 -12.4935 -8.7973 -12.7097 -16.1336 -25.6527
-8.4662 -7.7174 -12.9370 -5.0010 -1.3950 -4.0613 -6.5034 -7.8332 -1.2405 -1.7369 -5.8717 -11.8788 -1.7191 0.9254 -2.3883 -15.8183 -5.0114 -0.1751 2.9282 -2.8371 -10.3771 -3.8699 3.5220 4.2451 2.9764 -15.1543 -2.7873 1.0484 6.0379 0.8723
-8.5413 -9.1528 -16.1263 -5.7632 -2.1657 -5.1541 -9.0579 -9.8797 -1.1895 0.5693 -7.1136 -9.1444 -1.0192 3.8790 -0.5754 -12.9197 -1.4769 2.7477 7.2641 1.1527 1.2029 3.1215 9.4783 11.3468 13.7221 10.3255 18.0611 21.4378 27.2045 22.2357
-7.9141 -8.5843 -13.5073 -6.3824 -1.4816 -4.1563 -8.8600 -7.0314 -0.6683 3.5019 -6.1306 -7.2881 0.4501 5.2861 0.0151 -12.6367 0.3032 3.6838 7.2702 1.3429 9.5466 6.4186 9.8951 10.8206 12.3104 28.4314 27.0689 25.2101 27.8951 21.1135
-7.1769 -6.2300 -8.4297 -8.1482 -0.8990 -2.6164 -5.8916 -4.7895 -0.7938 4.6937 -3.7457 -8.8984 -1.0771 4.3009 -1.2188 -13.3733 -3.7928 0.4540 3.0896 -1.6512 -0.7294 -1.4510 3.1009 2.8821 2.5315 6.8848 7.5164 4.3784 6.1408 5.5000
-5.1564 -3.9841 -5.4388 -8.1728 -0.2944 -2.3838 -3.4507 -6.0802 -1.1939 4.1530 -2.7866 -10.1347 -4.2053 2.7426 -2.4454 -12.8655 -8.7477 -3.2667 -1.2791 -4.9756 -14.8646 -10.8804 -4.5996 -5.8950 -5.7193 -22.9335 -18.2308 -20.3530 -20.2516 -14.4896
-2.0939 -3.8450 -4.2171 -5.4623 1.0116 -2.4313 -3.6751 -6.9858 -0.9501 3.6260 -3.0408 -8.0956 -4.1369 2.0968 -1.9530 -10.1408 -8.6956 -3.5022 -2.6973 -5.6053 -14.7985 -10.8364 -6.2561 -9.0606 -8.7805 -24.0123 -24.8168 -27.9002 -31.1343 -27.9461
-0.9460 -7.0858 -3.5443 -2.6900 1.3541 -2.3326 -5.9357 -3.5634 -0.0368 2.8918 -3.3582 -6.6554 -0.8136 2.0332 -1.4320 -7.5900 -4.5776 -0.9000 -2.0394 -5.7241 -4.9470 -3.9971 -2.3528 -8.1511 -12.5574 -7.5621 -8.8062 -15.3158 -24.3780 -31.3463
-3.9419 -10.7487 -4.1949 -1.6049 -0.4621 -2.7085 -7.3582 0.6087 0.8209 1.2255 -3.6640 -8.3209 1.7842 2.4330 -1.4322 -8.5035 0.6076 2.5510 0.4313 -5.8779 7.3320 4.1674 4.3576 -4.0841 -13.7884 14.3746 24.0039 14.3696 -0.9155 -19.5918
-8.4249 -10.1972 -5.8901 -2.8268 -2.1554 -2.5338 -6.1754 -1.7294 0.8274 0.2134 -3.5774 -9.5832 1.1989 3.3472 0.2403 -11.2377 3.8082 4.8554 4.7315 -1.4074 18.4327 10.2533 11.2600 5.1737 -1.5770 41.2673 49.3710 42.0857 32.3042 13.8670
-8.5496 -7.2019 -6.5845 -5.5822 -1.2915 -1.0655 -4.6278 -8.8021 -0.2395 0.9893 -3.5254 -9.0230 -2.3074 2.8801 1.4474 -11.4476 0.2765 2.0391 4.9386 3.0213 14.5331 5.8375 9.6671 8.8037 10.1865 40.6087 31.7486 30.2814 36.0267 33.3873
-3.1930 -6.1404 -5.3958 -6.6824 1.3517 0.3643 -4.6367 -11.1996 -1.7439 1.9167 -4.1599 -9.2006 -6.9517 -0.4197 -2.1294 -9.1979 -9.9302 -6.5117 -3.1450 -2.7095 -9.6884 -10.7692 -4.9891 -5.0782 -1.3371 -9.5468 -20.0419 -20.7217 -10.5846 -0.9901
1.4106 -6.0585 -4.0098 -5.3024 3.4429 0.7880 -5.0702 -7.9338 -2.7015 1.6488 -3.4982 -10.1277 -10.0042 -3.7529 -6.3080 -7.0736 -17.5184 -12.9322 -10.3588 -10.3166 -29.3761 -22.4978 -17.5811 -19.0258 -16.9500 -55.2968 -47.7384 -49.6611 -46.2840 -35.0243
0.6224 -5.0990 -4.7603 -4.5476 3.9655 0.4888 -6.0441 -6.5549 -2.3928 1.4019 -1.2820 -9.8712 -9.5419 -3.3553 -4.3990 -6.1311 -14.9869 -10.6813 -7.3232 -5.6483 -21.7450 -16.5616 -12.8719 -10.5900 -6.0381 -39.0459 -24.2001 -20.7266 -15.8391 -0.5629
-1.6917 -3.2383 -6.4756 -4.4085 4.2031 0.1410 -7.3284 -7.4391 -0.9378 2.3936 -1.8306 -8.3744 -7.1707 -0.8409 -0.9705 -7.3710 -8.1267 -5.6511 -2.1571 1.2930 -4.1048 -7.0345 -3.5309 3.1158 9.5211 2.3357 4.8297 13.2309 23.5550 40.2125
-0.4307 0.5902 -5.0021 -1.5663 5.5199 0.8201 -4.9775 -4.1181 0.4279 2.7551 -5.0329 -6.0746 -5.8273 -1.2701 -3.4177 -9.8763 -6.6859 -6.6285 -5.7785 -4.4795 -4.7498 -10.4046 -8.5150 -4.1519 -3.1223 2.9759 -5.1479 -2.9719 1.6815 5.3581
2.3472 4.1520 -0.7184 2.0658 6.5805 2.5429 0.8249 1.8583 0.6867 0.2532 -4.7717 -3.3038 -4.8875 -4.7960 -7.8108 -10.1060 -8.9017 -10.7440 -12.0087 -13.2053 -16.3906 -17.9800 -19.2963 -18.8425 -23.4726 -23.7165 -30.6228 -37.5183 -39.7443 -48.2165
2.9283 3.0610 0.9558 1.5172 5.9097 3.5277 3.3603 2.4726 0.3828 -2.4405 -1.3183 -1.4817 -2.8782 -6.2205 -8.0463 -8.3365 -8.2911 -10.9400 -11.5392 -12.3728 -18.5502 -17.7524 -20.1962 -19.2884 -23.6862 -34.0715 -37.0309 -42.0160 -40.0113 -45.4354
2.1630 0.2205 -1.1229 -1.8785 4.5681 2.6465 0.6992 -1.9350 0.4045 -1.8193 -1.5176 -1.3034 -1.8012 -3.7581 -6.8783 -8.0137 -6.3798 -8.5607 -8.3973 -9.5631 -15.5010 -15.3425 -16.5400 -15.5446 -19.1395 -34.0810 -32.6314 -29.8468 -25.2402 -26.6447
0.1349 0.0329 -3.7122 -3.9999 2.7588 -0.0225 -3.3614 -4.4800 0.5068 -0.7482 -6.2359 -2.2292 -2.6858 -0.9628 -7.3992 -9.1163 -4.9928 -6.3675 -7.1847 -11.2879 -12.6326 -12.7150 -14.1682 -17.0912 -22.5039 -29.6874 -19.7633 -17.8371 -22.6439 -29.6124
-4.3032 -1.2017 -6.7034 -4.9210 -0.1208 -3.8719 -7.7848 -4.1659 0.1938 -2.3077 -10.0631 -5.0644 -3.3264 0.0448 -7.3640 -10.0102 -2.1168 -3.1324 -4.8071 -11.2376 -2.9783 -4.4404 -7.3866 -12.6504 -17.3334 -5.1557 7.8706 4.0984 -5.7132 -14.0965
-6.6569 -4.9968 -9.8727 -5.1773 -1.3041 -6.0732 -11.1489 -4.2068 -0.2583 -3.2994 -9.9872 -9.6972 -3.8826 -0.3254 -6.3370 -10.6997 -2.5795 -2.3759 -2.8920 -9.1433 1.0583 -1.2021 -2.7580 -5.5943 -5.7751 8.9616 12.8317 13.0524 14.4935 15.0716
-3.4275 -4.6833 -9.4125 -4.2791 1.0034 -4.0398 -9.5185 -5.1818 -0.4466 -2.0019 -7.0102 -11.6552 -6.2647 -1.8914 -6.1587 -11.0777 -10.4064 -7.7915 -6.1932 -11.5444 -15.2388 -12.8659 -11.1852 -12.1937 -11.1884 -22.5274 -26.0169 -17.7889 -7.4338 -3.6521
-0.3568 0.8198 -5.5843 -3.9162 2.8478 -0.4629 -4.6597 -6.4007 -0.3550 -1.1282 -3.4399 -8.4544 -8.4313 -2.9035 -5.3603 -10.4178 -16.1105 -12.0234 -9.5245 -14.6528 -31.1023 -23.2754 -20.3786 -22.6697 -26.2253 -56.8475 -56.8063 -50.7875 -46.7816 -50.2719
-1.4261 3.8198 -3.2008 -4.5849 1.5953 0.4309 -2.1451 -7.0471 0.1136 -0.6013 -1.2467 -4.3066 -7.0708 -0.9706 -2.2448 -7.8814 -12.2855 -8.1215 -5.9838 -10.2419 -25.4751 -18.2688 -15.0828 -17.2768 -23.4603 -47.8071 -44.8223 -44.0741 -45.1248 -50.1626
-2.7969 1.0958 -3.1643 -4.4012 -0.1074 -1.0870 -2.4100 -5.8100 0.9866 0.8316 -1.2815 -1.9383 -2.6586 2.5501 0.6282 -4.9233 -4.0624 -0.4468 0.5599 -1.9380 -7.4138 -5.1785 -2.0896 -3.1903 -6.9103 -13.0487 -13.0247 -12.6788 -12.0602 -13.6226
-3.7789 -2.8694 -3.1386 -4.1526 -1.2213 -2.8229 -3.1120 -3.1666 1.5008 1.1529 -2.9742 0.0247 1.7490 4.6160 1.0721 -5.2913 3.4174 5.4096 4.1561 1.4974 11.0771 7.7827 7.5525 3.6896 0.7027 21.8102 21.4726 16.2946 9.7855 0.1025
-6.6292 -3.9335 -3.0686 -5.6827 -3.3048 -4.0862 -3.9529 -1.8772 0.8367 0.1736 -3.7657 -0.3283 2.7591 4.9226 1.4047 -6.4622 6.3992 7.5605 5.5660 1.7408 19.8677 13.9638 11.5004 5.6562 1.2927 37.7275 41.2574 30.2891 17.5142 -1.5378
-8.2232 -2.9881 -4.2794 -7.9587 -4.9145 -4.5221 -5.2738 -4.2558 -0.3002 0.7136 -1.5463 -4.2433 -0.0662 4.9929 3.8914 -2.1492 1.8095 5.3269 7.1269 6.0593 10.0542 7.2442 10.3985 10.2673 9.6811 18.4192 24.9769 25.3764 27.8776 19.3438
-6.1747 -3.0614 -5.5333 -9.1579 -3.6904 -3.9554 -6.5219 -7.9431 -0.1489 2.2989 0.9969 -6.0399 -1.7310 5.4574 6.1259 2.8438 -2.8935 2.5089 7.8299 10.9416 -2.2637 -1.4172 8.0992 13.1291 17.6237 -7.1791 1.1150 13.8957 31.9633 38.0987
-3.6212 -2.3593 -3.1284 -7.7035 -1.0415 -3.0485 -5.6621 -6.1750 1.6190 2.0227 0.1289 -3.2499 0.8203 4.9552 4.3661 0.2443 -0.7806 2.1108 4.5510 6.1394 -0.9991 -0.9128 5.4656 5.0397 6.6489 -7.8755 -0.4546 0.0641 6.4961 7.8289
-2.1552 2.8684 2.2375 -3.7556 0.3514 -2.2697 -1.5093 1.1796 2.9487 0.4523 -1.3918 -1.5512 2.9271 2.4286 0.2008 -4.2033 0.5706 0.2329 -1.4228 -3.6552 -1.2521 -1.0792 -0.8160 -8.5379 -11.3052 -7.2365 -5.0513 -20.0997 -30.0117 -37.5090
-1.0040 7.9623 3.8660 -1.7013 -0.0384 -1.1123 3.0294 3.8133 2.0980 0.6351 1.5604 -2.8712 0.8189 0.6217 0.0224 -1.7554 -3.7100 -3.4124 -1.8524 -1.9144 -10.5323 -6.5884 -3.9307 -8.3832 -5.5839 -20.8244 -18.9217 -20.3662 -21.5348 -21.4914
-0.3951 7.1407 0.7149 -3.4726 -1.1519 0.7340 4.9499 -1.4152 0.3216 2.4761 6.3256 -2.3605 -2.5233 1.8757 4.8527 4.2090 -6.1897 -3.6287 4.5334 9.7879 -13.2150 -7.8184 2.0737 5.5348 17.9504 -27.0088 -15.4619 6.9445 23.3688 34.8635
0.2772 4.9450 -0.4491 -4.3260 -1.9314 1.0849 4.2930 -3.5414 -0.1886 2.4897 5.2276 1.5717 -3.3308 2.9126 7.0296 7.5172 -2.4136 -1.4486 6.5877 12.4538 -5.2425 -4.1208 5.8920 9.5272 22.9880 -14.3511 -1.0748 16.5306 29.6366 40.1623
1.1287 4.2984 1.3094 -2.6996 -2.2865 -2.1552 1.5394 1.6950 0.4349 0.1425 -1.3093 5.0874 -1.0001 1.6494 3.5413 8.2194 5.1144 0.0616 2.0613 5.1761 8.3431 1.8635 3.5183 1.8411 9.6400 16.5615 15.6201 6.5961 1.0344 2.5570
0.9111 1.5327 1.5435 -2.5811 -2.2748 -4.9840 -0.4271 4.8199 0.9820 -0.9630 -4.2613 5.9131 1.8792 0.9826 0.7534 7.3559 11.1900 1.7848 0.8137 3.9716 22.3548 9.8469 5.2617 3.1793 8.8580 48.5876 38.1999 18.4546 6.6230 2.3594
1.3338 1.0076 1.8526 -3.5611 -1.2290 -2.5228 2.4694 2.4851 1.2417 -0.5462 -1.1506 6.3804 1.4352 0.2711 -0.2710 4.3796 9.6594 0.5853 0.6416 5.9974 21.8671 8.6358 4.9005 6.7309 13.7868 45.4855 34.0023 24.5361 22.4224 19.7373
4.3553 7.7800 5.0620 -2.1166 0.5984 1.2255 7.0271 1.8399 1.1588 -1.8895 0.8094 8.7962 -1.2901 -3.4732 -4.7020 1.2719 3.3045 -5.7449 -7.0920 -2.2884 6.9997 -4.9129 -8.3369 -6.6338 -2.8480 14.1594 -7.5586 -12.8268 -11.6996 -11.2728
7.3800 12.4868 7.6719 0.4570 1.9837 0.7571 7.2808 4.4886 0.8878 -4.0238 -0.8470 10.9594 -1.5115 -6.9003 -9.4242 1.2950 1.0787 -9.9381 -15.1263 -12.7203 -0.6820 -12.7881 -20.1977 -21.9068 -24.6483 -3.2923 -32.2488 -44.2681 -51.1477 -51.1869
8.2445 8.1544 6.6835 1.2946 2.9664 -0.7868 5.3528 5.3841 1.4326 -3.8678 -1.3930 9.7614 0.1216 -6.4476 -8.3016 1.9379 1.3706 -8.4111 -14.6624 -11.6270 0.3521 -9.2743 -18.2128 -19.4839 -22.0841 -8.4452 -21.8877 -32.2993 -40.6142 -38.9684
7.7910 2.8669 3.8338 0.6405 3.8207 0.0766 5.1946 3.7568 2.5294 -2.9490 -0.5981 6.4253 -0.8160 -5.1779 -5.2075 -2.0751 -1.5859 -7.0268 -11.9158 -5.9535 -4.2189 -7.9662 -13.8241 -11.6335 -7.9550 -20.7552 -16.1571 -15.7830 -16.5938 -9.7900
5.8248 1.5856 0.5763 -0.8924 3.3175 0.2219 4.0568 1.6550 2.1575 -3.3375 -2.0038 3.4468 -4.1559 -5.2778 -5.5146 -7.8429 -4.4138 -7.7721 -12.0783 -5.6443 -10.0525 -11.2313 -14.9625 -11.9818 -6.3688 -26.6233 -21.8408 -17.2433 -14.6659 -8.4405
2.7102 -0.7954 -2.9238 -3.2174 1.2531 -1.6692 -0.0139 -1.3932 0.1501 -3.2438 -3.9330 0.8878 -6.4696 -4.7622 -6.5414 -8.5316 -4.3352 -7.6611 -11.2000 -6.8590 -8.9488 -11.3806 -15.0177 -13.4146 -11.1660 -19.7470 -17.8629 -16.2404 -14.4264 -12.4763
1.2755 -4.8525 -4.9554 -5.0067 -0.1901 -2.2063 -2.9648 -4.3606 -1.0696 -1.7437 -3.0288 -0.8185 -6.0102 -3.3107 -5.2845 -5.7185 -4.0499 -6.6188 -8.1827 -5.0033 -6.2521 -8.7593 -11.2539 -9.6940 -7.9636 -15.0391 -9.5245 -7.8014 -3.8338 -0.3545
1.8409 -5.8686 -4.3273 -5.2781 -0.0637 -1.2763 -3.2445 -3.9744 -0.4547 -0.8647 -1.4710 -0.6881 -3.2889 -2.3283 -3.4279 -4.4609 -2.7216 -5.2480 -5.8122 -2.3864 -3.9496 -5.8066 -6.9974 -4.8998 -0.8396 -10.7106 -6.4155 -2.0619 3.0376 7.5248
1.9984 -4.0747 -2.5553 -4.3196 0.1675 -1.3541 -3.5347 -0.9322 0.6505 -1.0866 -1.6704 0.3519 -0.5781 -1.4957 -1.8671 -3.4063 0.8940 -2.7718 -3.8852 -0.5711 1.1188 -1.7186 -3.1341 -1.5907 1.5240 0.5672 -0.9011 1.9147 2.2996 0.5853
1.8450 -2.4288 -0.2162 -2.5127 0.0621 -0.5020 -2.0608 1.3058 1.4076 -0.8791 -0.3823 1.5494 -0.0339 -0.2827 0.4989 -0.0432 2.7052 -0.2999 -1.2895 1.9665 4.1439 0.4954 0.0164 1.4808 2.0874 6.0615 6.2982 5.9826 2.6019 -1.1428
2.3827 -1.6928 3.4128 -1.2169 0.3527 2.8237 2.7079 2.1579 1.8701 -0.5434 3.8908 2.1844 -1.0346 0.3476 2.7371 3.4896 0.8351 0.1594 0.7190 5.1029 0.3723 -2.2355 0.5426 3.5145 5.2126 -2.7382 4.1150 4.9771 5.0148 7.0773
2.3994 -2.1581 6.1594 -1.4364 0.6963 4.1099 4.1109 2.8014 1.7118 -1.1191 6.2157 0.1002 -1.5038 -0.2241 2.8900 4.9305 -0.9860 -1.1801 0.5878 5.6829 -4.5186 -5.4756 -1.7450 1.8028 5.7615 -11.3841 -4.3821 -3.3721 -0.0637 1.9235
1.3825 -2.9680 5.7574 -1.3821 0.6106 1.7378 0.4246 3.8320 1.1933 -1.0009 4.8981 -3.8184 -1.0805 -0.8668 2.3462 4.6432 -0.9594 -2.3925 -0.5665 3.4428 -5.4646 -4.6494 -3.3824 -1.2875 2.9068 -10.0257 -6.0619 -9.8359 -8.7093 -11.7347
-0.0249 -3.4510 3.1125 -0.8047 -0.1759 0.3928 -0.5002 4.7260 1.3596 1.1766 4.2737 -6.1855 -0.7124 0.3471 4.2462 3.9643 -0.6261 -1.3105 1.5439 5.1263 -4.9678 -1.3128 0.8698 4.2860 11.3887 -6.3893 2.3268 4.1244 10.6905 13.1904
-1.9500 -6.2066 -1.1600 -2.3557 -2.2185 0.3032 0.4850 2.7624 2.0608 2.7601 4.0297 -6.3161 -0.5510 3.5902 6.9057 3.8114 1.1265 2.8122 7.7602 12.2545 -1.3002 3.2716 10.3112 18.6024 31.4644 2.1691 16.7334 37.0828 58.7937 71.4920
-3.6114 -10.4957 -5.1624 -5.0195 -4.4414 -2.4090 -3.3423 -2.4491 2.0912 1.0685 0.0370 -3.2240 0.0250 6.1332 4.9674 2.9539 6.9478 7.6415 10.5685 12.2486 12.3912 10.0878 15.4196 21.4757 30.9197 29.8413 36.3950 53.8709 70.5490 76.9408
-3.9151 -11.0696 -5.0798 -5.8516 -5.1481 -6.1826 -7.6897 -5.5890 1.4619 -1.7495 -5.0809 3.6538 1.3846 6.3731 -0.4241 0.5432 14.5865 10.5364 6.6092 0.9080 31.8041 17.7536 13.1688 6.6121 2.6422 67.8239 58.6200 41.3546 25.5800 12.3568
-3.3472 -9.1639 -3.1452 -6.0093 -4.8657 -7.2440 -7.6644 -4.1874 1.3327 -2.0310 -6.1034 8.2767 2.9058 6.4461 -2.0699 -0.7131 17.9371 11.5575 4.3148 -5.3494 40.6907 22.2591 12.7051 -1.9928 -10.8015 83.9333 68.9039 31.3722 -3.0350 -25.6538
-1.8953 -8.9894 -3.2629 -6.1797 -4.1941 -5.3849 -5.9566 -2.1588 1.7375 -0.1131 -3.9662 6.0843 2.7068 6.8193 0.0163 0.0864 13.6228 10.0825 6.1910 -0.8677 28.8810 18.0784 13.9835 2.9220 1.5048 56.0168 49.4446 28.2099 6.1607 -10.4343
0.6932 -6.6735 -0.8872 -4.4115 -2.5114 -1.2752 -0.0849 -0.7415 1.4114 0.6686 -1.0518 2.2821 -0.5611 4.2490 -1.1073 0.5152 3.1966 3.6735 3.0667 -1.3180 1.4441 1.8484 5.2364 -1.2556 -0.7513 -7.1951 1.4590 -2.3044 -10.1753 -18.3729
3.3132 0.6113 5.7514 -1.9310 -0.4066 3.4208 11.1713 1.7545 0.3468 -0.9116 2.6815 2.3856 -4.7605 -0.8515 -5.3618 1.3770 -7.6243 -5.2691 -5.1429 -9.7778 -25.1924 -18.3318 -10.4999 -16.3470 -21.7654 -63.9241 -48.2161 -50.1961 -53.0656 -54.5508
5.4700 5.6748 7.8431 -1.2371 1.0278 5.0244 16.6271 2.8828 0.2057 -2.3375 5.7231 5.5016 -5.4700 -3.0306 -5.9708 3.8273 -10.7646 -8.7531 -7.1941 -11.3988 -32.1455 -25.0853 -15.5350 -18.9492 -24.5928 -68.6036 -66.0864 -63.8316 -60.0607 -54.5724
6.7319 3.5707 3.7504 -1.4378 1.3916 3.0980 12.0375 0.9567 0.9935 -1.3924 6.2345 8.3034 -2.2634 -0.7263 -1.5442 5.3761 -4.5627 -4.3538 -1.2840 -2.8948 -16.8941 -13.9023 -6.6502 -6.2765 -5.7053 -27.0628 -45.1076 -36.3955 -28.8249 -19.5400
5.7081 -0.2084 3.4432 -1.3628 0.0939 1.5317 7.8508 1.1079 0.7680 0.4599 5.3629 7.5108 0.2415 1.3907 2.8856 6.9476 1.5732 0.3474 3.0375 4.7553 -1.0561 -2.1285 1.0718 2.6319 7.6771 4.8214 -17.9558 -11.6312 -5.7061 2.9928
3.5935 -0.2336 7.8384 -1.1742 -2.0185 2.0891 6.8359 6.0047 -0.2623 0.6925 5.0612 3.3065 0.0075 0.4379 3.8961 10.8843 0.7108 -0.3648 1.4648 6.0079 -1.9206 -3.5284 -1.2632 1.0421 6.6589 -3.1080 -14.9872 -11.5404 -4.0061 1.8913
3.4648 1.2984 7.9737 -0.6689 -2.7318 2.7569 3.8498 8.7635 -0.2795 -0.4317 6.5520 0.5193 -0.6682 -1.3990 2.8002 12.8491 -2.5800 -3.2929 -1.2331 4.8146 -10.3647 -10.4174 -7.2504 -1.5721 2.8893 -24.3760 -23.6272 -16.1813 -6.6851 -3.4014
5.0786 1.4559 4.2550 -0.1507 -2.1319 2.3716 2.8918 5.3268 0.1251 -0.9663 9.3166 1.8238 -0.9133 -2.0135 2.3945 10.6110 -3.0605 -4.5731 -1.0587 5.7696 -11.4746 -10.9998 -8.8713 0.7542 6.3784 -29.0509 -18.6989 -8.3246 -2.4599 2.1095
6.2227 1.7461 3.5484 0.1866 -1.7894 1.6313 6.9636 3.1010 -0.0652 -0.6788 9.4980 5.6356 -0.5057 -2.0095 3.2155 10.1066 -0.5880 -4.2588 0.3780 8.0894 -3.7863 -4.7709 -5.6962 4.7737 14.6275 -16.2409 -2.2552 4.8705 7.7258 15.1252
7.0042 3.1196 5.2674 1.2194 -1.6600 0.9228 8.2448 6.5300 0.5437 -0.6192 5.3228 9.8815 1.8594 -1.9910 3.6402 13.0747 4.0164 -2.7534 -0.0931 7.8650 7.0064 2.4741 -2.4951 6.0429 17.6291 3.1924 9.2375 11.0177 14.8066 20.9825
7.8528 4.0027 6.2382 1.8850 -1.4786 0.6616 4.5282 8.3490 2.2263 -0.6324 1.6407 12.0113 4.1927 -1.2982 2.7095 14.3912 7.7292 -1.1195 -2.0557 5.3511 13.5473 4.8783 -3.2158 3.9390 13.8389 15.6833 9.9145 9.3306 13.1179 17.4780
7.1299 4.0279 6.3139 0.1245 -1.9605 0.9819 2.3943 4.8987 2.8260 -0.4669 1.5914 10.7767 3.7007 0.0629 1.1207 12.9940 7.7693 -0.8719 -2.2428 4.3599 12.4505 2.2789 -5.2822 1.4216 11.0741 13.4473 8.5785 9.8030 11.9239 16.4271
4.9169 3.7471 4.7289 -1.3008 -2.6354 0.5068 2.1130 3.0545 2.2714 -0.8624 1.7576 8.6792 2.8230 0.7366 -0.0543 11.6401 6.9119 -0.8110 -0.5239 4.8101 10.2534 1.5141 -3.9534 1.4731 11.3132 8.8722 13.8677 16.4669 17.9870 20.2316
4.1188 2.8851 1.7819 1.4047 -2.1533 -1.0919 -0.0515 4.8726 2.5053 -1.1091 1.0727 6.9479 3.7905 0.2690 0.1149 10.9817 6.6908 0.0987 0.2288 5.0206 10.7305 4.3048 -1.1074 4.3364 13.2454 11.7853 17.4937 19.7018 24.3349 27.6831
4.6395 0.7331 -0.0702 4.2332 -1.3773 -2.0191 -2.1888 3.6737 2.8774 0.1333 2.0308 3.3113 3.5875 0.2668 2.1057 11.5107 3.5917 0.2287 0.7916 7.4170 7.3732 4.1998 -0.0025 9.2640 21.4643 8.1866 9.9799 17.5136 31.9639 46.7329
3.6129 -2.3340 0.9595 2.5863 -1.8811 -1.9054 -1.6050 -0.3815 1.9385 1.2726 2.4959 -1.5425 0.9822 1.4224 3.8602 13.3879 -1.3544 -0.4699 2.4048 10.9244 0.8631 0.4472 0.2035 11.8412 29.4340 -4.4871 3.0405 15.6789 36.7892 57.8347
1.7124 -2.8694 4.3543 1.0054 -2.3683 -2.1825 -0.9035 -0.2442 1.4611 0.4474 -0.4459 -3.0468 -0.1823 2.0203 1.8125 12.3345 -1.9831 -0.0515 1.1255 7.5981 2.1416 -0.5677 -0.8893 4.7261 18.0374 -0.5266 8.9812 7.3947 13.8499 21.3311
0.5652 0.2361 4.3682 2.4451 -1.6596 -3.4898 -3.6447 1.8889 2.7797 -0.3338 -3.9298 -0.2934 1.8890 2.2112 -2.8410 4.3626 2.8946 2.3107 -2.3617 -2.0226 12.9122 4.1652 -1.0162 -5.8423 -5.0566 28.2805 22.3440 -1.8438 -21.2319 -32.3983
-1.4186 0.5313 -2.2136 2.2573 -1.4467 -5.3438 -6.7083 -0.5004 3.8712 0.8809 -5.7686 2.0878 4.2761 4.2188 -5.1065 -5.7891 8.4725 6.1583 -0.7787 -7.2618 22.7812 11.9698 5.3385 -4.9389 -11.7073 52.1312 33.5594 8.2998 -17.4880 -34.7529
-3.6548 -4.0920 -6.1427 0.7513 -1.9018 -6.2118 -3.8398 -2.9506 3.4437 1.8389 -7.3440 0.0249 3.7131 5.7624 -5.4978 -9.4079 8.0144 7.6213 2.6933 -7.4982 18.5834 13.2022 10.1225 0.4511 -8.2277 35.7843 24.8510 14.1335 2.7950 -11.9319
-3.0813 -5.3208 -2.5756 1.9345 -1.1569 -4.9782 1.0845 -0.6740 2.3321 0.3578 -7.4495 -5.3448 -0.5142 2.9141 -7.7936 -6.0091 -1.7008 2.3911 -0.9191 -10.1669 -4.4381 -0.4169 1.3425 -5.8036 -16.8752 -19.5421 -15.8453 -17.3854 -15.4159 -25.2894
-1.6300 -2.2185 -2.4068 2.7006 -0.3964 -3.9901 -1.8392 0.1083 1.6198 -1.7899 -5.1825 -8.0634 -4.2930 -0.0973 -9.1889 -3.1139 -9.2776 -2.5224 -4.5062 -11.4827 -20.3794 -11.4727 -6.4894 -11.5792 -22.1661 -48.5003 -38.2913 -35.9115 -33.3743 -39.5562
-3.4546 -3.8215 -8.2303 0.8306 -1.7787 -5.7180 -9.7557 -2.3062 2.5203 -1.9171 -4.8644 -4.3443 -1.2938 2.9879 -5.7524 -4.8970 0.4799 3.9555 2.4937 -5.3514 3.9258 5.9237 6.4017 -0.0476 -6.3305 8.0194 16.8697 12.1166 0.2516 -11.8604
-6.3827 -8.0755 -8.0517 0.9126 -3.1200 -6.8334 -11.2840 -0.8045 4.3067 -0.0662 -7.0931 -0.1575 5.7628 7.4148 -1.6533 -7.3949 14.9718 13.6658 9.9634 0.5288 38.9819 31.1766 22.2240 12.1333 7.9233 77.8301 83.1794 58.4249 31.5827 11.5814
-5.2727 -5.2057 -1.4925 3.2829 -1.6150 -3.3688 -5.9974 2.3711 4.1049 1.2012 -5.2774 -2.8881 6.0717 5.0830 -1.6105 -5.5688 8.0583 9.2975 5.0239 -1.2403 23.9557 20.7303 13.5831 5.3586 2.0198 43.9614 48.9101 22.9243 7.2751 -3.1882
-0.9427 1.7711 0.3616 3.0169 0.7931 1.4750 -1.1887 -0.9736 1.9132 0.4399 1.2593 -7.7836 -1.5124 -0.7646 -2.8363 -0.7904 -12.9401 -4.3911 -3.7814 -4.1930 -25.1715 -13.6204 -6.7357 -6.7996 -6.8995 -51.9728 -43.9313 -40.8332 -26.9894 -19.5514
1.6060 3.7552 -2.6374 -0.0465 1.1974 3.0082 1.7289 -6.9105 0.2445 -0.1335 5.0152 -6.9881 -7.1667 -2.2565 -1.4276 2.1278 -21.0955 -9.8327 -3.8360 -1.4803 -45.1527 -27.1407 -11.5132 -5.7603 -3.3922 -88.8532 -76.5912 -49.9944 -23.5735 -13.0421
1.0100 0.3022 -4.1777 -2.1386 0.3214 2.0360 2.6635 -7.2491 -0.5048 0.9956 2.9698 -3.6254 -6.7540 -0.0828 1.2271 2.1832 -15.0657 -5.9133 0.8918 2.4365 -30.7738 -16.8128 -3.4638 1.9926 3.7141 -62.7083 -44.6454 -20.9897 -4.3079 -2.3980
-0.4370 -5.0489 -5.0949 -1.6440 -0.2172 0.5150 -1.7619 -4.0987 -0.6469 1.3272 -1.1557 -3.2818 -3.8010 0.8484 1.6817 1.3032 -8.0157 -1.9769 2.0221 1.0127 -12.2781 -4.9490 1.9483 3.8840 2.9154 -28.2340 -6.6841 0.4962 3.2061 -2.8087
-1.1170 -9.6077 -5.9992 0.1833 -0.3794 -0.8606 -7.9437 -2.9699 0.1589 0.1928 -3.0853 -4.7778 -1.3161 0.1605 -0.0625 0.5362 -2.9304 -0.8108 0.3000 -3.1495 1.7062 2.1416 2.4051 1.4009 -2.1379 1.5346 16.7911 9.1549 3.9798 -7.3604
-0.0474 -10.6248 -3.9323 0.7296 -0.1424 -0.3465 -6.9288 -4.4889 0.4172 0.2026 -0.9189 -5.9754 -1.9849 -0.8102 -0.6909 1.4631 -2.8083 -2.6575 -1.0866 -2.8862 2.9195 0.9343 -0.7006 0.4724 -0.5481 7.5715 11.2555 4.7564 5.7429 -1.8784
3.1432 -7.9404 -1.3049 -0.1888 0.5482 1.7072 -0.0343 -6.5304 -1.0731 0.4777 2.6603 -6.0533 -6.4363 -2.8561 0.8546 5.2055 -10.3915 -7.7180 -2.6627 1.6567 -15.1653 -10.6578 -7.1706 1.0194 8.4513 -24.3397 -24.6955 -11.9426 7.0550 14.5659
6.0115 -3.5655 -1.3495 0.5618 0.9178 2.5418 4.0847 -6.5222 -2.2288 -0.9193 4.0827 -3.8028 -9.6092 -5.3419 2.3160 9.0699 -15.8853 -11.2092 -4.2425 4.6307 -29.4922 -18.0895 -10.8484 2.0497 16.2474 -51.1807 -46.1328 -18.4923 10.4547 26.7314
5.5820 0.3348 -0.6883 2.8330 0.5134 2.5704 3.9239 -4.0121 -1.6548 -1.3085 4.8764 -0.8303 -8.0243 -5.4501 3.2399 10.3003 -10.9950 -9.2152 -3.2678 5.3693 -19.8111 -11.3513 -7.1057 5.5506 20.3011 -36.4685 -25.6630 -2.0881 21.1972 29.7603
3.2716 1.4397 2.4449 3.4237 -0.0567 3.4322 3.2109 -1.1010 -1.2474 -0.0650 6.0926 -0.4734 -5.3753 -4.1320 3.8355 9.6849 -3.2991 -5.9242 -1.3319 5.7130 -3.2410 -3.3782 -3.0476 8.5498 21.0737 -9.1507 1.5925 13.2765 28.1701 29.6700
3.2114 0.6508 4.7313 3.7859 -0.0081 3.7440 2.8800 1.3585 -1.8226 -0.9718 4.0725 -1.7675 -4.8745 -5.3672 1.3290 7.8133 -1.6242 -6.5175 -4.2034 2.6695 -0.8843 -5.7139 -7.1128 2.8370 12.5110 -2.7825 0.5784 2.4566 10.4929 16.4413
5.5445 0.7701 4.6703 5.8871 0.4529 2.6453 1.7078 2.9822 -1.4672 -2.9405 -1.3826 -0.3378 -4.1993 -7.8269 -4.1114 3.7411 -1.5420 -8.1438 -10.5275 -4.1136 -1.6092 -7.9444 -13.1150 -8.3028 -3.6742 3.2295 -8.4580 -16.8317 -20.7881 -13.6123
6.2256 0.0702 2.7232 6.0109 0.3045 1.5382 -0.8207 2.8702 0.2552 -1.8452 -5.1562 4.0437 -1.4554 -6.9492 -6.8085 -1.4756 3.6353 -5.7402 -12.1854 -8.5595 10.4483 0.9275 -10.1495 -11.0094 -12.8370 31.3810 6.1708 -12.6969 -29.4388 -31.7962
4.2085 -2.8654 0.4719 3.4396 -0.3008 1.4195 -2.0741 3.0760 1.4276 0.2826 -4.4779 5.9080 0.9440 -4.1969 -4.7927 -4.0434 8.3651 -1.9261 -8.6283 -8.2109 19.4813 9.5041 -3.1933 -4.6148 -9.9443 45.7894 25.3231 4.5351 -12.6125 -21.0441
2.9698 -3.6207 1.5990 3.1160 -0.0630 2.4942 1.5428 4.7277 1.1618 -0.2661 -0.6800 2.8750 0.3087 -3.7827 -2.0353 -0.9105 4.5413 -1.9969 -5.9870 -5.1416 6.9550 4.0079 -3.0563 -0.3463 -3.1025 14.3435 14.3251 5.3761 1.5448 -1.8875
4.0932 -1.0489 4.9972 4.7273 0.5102 3.4602 6.6134 4.5109 0.2550 -2.0495 2.8195 0.4726 -2.2259 -4.7165 -0.7029 5.7859 -1.8730 -4.0501 -4.8419 -0.0269 -8.9243 -5.6789 -5.5881 0.4687 3.5032 -19.9800 -9.4604 -4.3770 3.9185 7.5394
5.3461 -0.6136 4.3468 3.9661 -0.5434 1.9868 6.2962 2.6385 -0.4241 -2.5494 2.8328 3.4772 -3.0080 -4.1045 -0.0352 9.9763 0.1987 -2.9909 -2.3837 4.6114 -3.5658 -3.1096 -1.8739 3.1352 8.3466 -7.5955 -6.9394 -1.9550 4.6734 8.9111
5.0184 -3.9859 0.3211 1.8786 -2.9324 -0.7762 2.9766 2.3761 -0.5783 -1.7841 1.1987 7.8813 -1.1054 -2.1630 0.4469 9.8388 7.1492 0.6763 0.7376 5.4914 11.2782 7.3545 4.8803 6.4484 9.0998 23.8653 14.4186 9.8641 7.8049 6.6699
3.6238 -6.6571 -0.3131 1.1508 -4.2966 -1.1650 3.3493 1.6444 -0.4581 -0.6047 2.2883 7.0856 0.1463 -0.3478 1.3670 9.4104 6.8319 2.5844 3.0329 5.4351 10.4320 10.1134 7.2714 7.9369 9.5131 21.8164 18.4286 12.8077 10.2211 4.6869
2.1460 -5.6047 2.0045 1.0577 -3.7787 0.4151 4.6999 -0.6356 -0.0692 0.4131 4.7947 2.3372 -0.6401 0.7545 2.5279 10.1827 0.5340 1.8299 4.2744 7.4385 -1.5128 4.2846 5.8948 8.6354 11.2346 -1.4181 4.6289 5.9525 9.4572 4.4290
1.1539 -2.8409 1.6638 1.1678 -2.6147 0.6060 1.1919 -0.2230 0.9068 0.9207 4.2480 0.0455 -0.5399 1.3396 2.3786 9.2869 -0.2737 1.8519 4.4820 8.1782 -2.4225 2.1228 5.9549 8.9465 8.5526 1.7387 2.0551 5.1785 8.5423 4.2250
0.6876 -2.4537 -1.6323 1.4380 -1.9260 -0.5749 -4.0511 1.2904 1.7007 0.6339 0.7121 0.7311 0.5617 1.8347 1.4218 5.9561 3.5094 3.8110 4.5179 6.0519 5.3229 5.9243 8.5491 9.0064 4.3635 21.4166 10.3445 12.9723 11.8682 7.4430
-0.6456 -5.7143 -5.4314 0.1869 -2.0961 -0.9719 -6.5836 -1.5240 1.3700 -0.1354 -2.2149 -0.2344 -0.0236 2.3149 1.5539 1.2977 3.5680 5.2573 5.6037 4.6462 6.5179 8.9944 12.0224 10.7231 7.6264 19.8600 15.3584 20.0390 17.8456 15.6573
-4.3216 -10.1850 -9.4004 -1.9462 -3.1536 -0.9466 -9.3174 -4.8508 0.8364 -0.1601 -1.6079 -2.9284 -0.2776 2.8891 2.3510 -4.3399 4.5072 6.6946 7.9047 5.1377 10.6089 14.1123 17.5476 14.8869 13.5963 20.3931 35.4200 32.1461 26.1724 21.6978
-7.6622 -12.4181 -11.5910 -1.7066 -3.7758 -1.5882 -12.5576 -3.0934 1.0278 0.2590 1.9036 -4.2470 1.2810 3.2742 2.5929 -7.4381 9.3702 8.9314 9.4453 5.0144 21.4117 20.3100 21.8463 17.2483 12.2442 40.6082 60.8931 44.3381 34.3807 21.2603
-6.0197 -9.8820 -8.9816 0.4955 -2.1561 -1.8461 -9.5657 -0.7609 0.9928 -1.0544 3.3063 -5.0967 -0.7138 1.9076 1.9713 -3.8890 4.4772 6.5106 6.5349 2.5744 9.6246 10.8247 14.7087 11.5522 5.3548 21.0251 30.1134 23.3488 26.2566 14.7556
-0.8682 -4.7545 -4.0206 1.1597 0.5212 -1.2908 -1.4392 -2.4570 0.1152 -3.8455 -0.0816 -7.2817 -7.0243 -1.6194 -0.5377 2.0228 -11.9751 -2.4479 -1.0532 -2.3006 -26.6146 -13.0841 -1.8157 -0.9838 -2.6285 -48.8878 -45.5617 -26.5403 -3.4200 -0.2971
1.8054 -3.7377 -2.8768 -0.0794 1.0318 -1.8897 0.4001 -4.6134 -0.8525 -5.5689 -4.3487 -8.8806 -9.6627 -4.6404 -4.9230 2.7791 -19.4699 -8.9003 -7.4538 -8.1964 -43.5560 -24.0860 -11.2149 -11.2714 -12.0588 -81.5000 -73.7399 -51.0171 -30.0395 -22.1484
0.5117 -7.5446 -6.1215 -1.3582 -0.7727 -3.9326 -5.7704 -5.1038 -1.5369 -5.8801 -6.1231 -7.8706 -6.3714 -4.7347 -7.8398 -0.9939 -11.4918 -6.8394 -7.7658 -11.7953 -27.9281 -14.1979 -7.7455 -12.9687 -18.2972 -48.5106 -37.7254 -32.0117 -32.2569 -36.9611
-1.5948 -8.8734 -7.5485 -2.0755 -1.7814 -4.4884 -8.6255 -6.5013 -1.8946 -5.8331 -6.1549 -5.1360 -3.1503 -3.0354 -7.3187 -4.4282 -3.4099 -1.7040 -4.5227 -11.1060 -9.6693 -2.5055 -1.3858 -8.3863 -15.8515 -11.9650 -3.0916 -5.8795 -18.7372 -33.6921
-2.2261 -5.6911 -5.2920 -1.1939 -0.4136 -3.0147 -5.7557 -7.0714 -1.4394 -5.5331 -5.8856 -3.1886 -2.7118 -2.6207 -7.0383 -7.3313 -2.6110 -0.0274 -4.1518 -9.5711 -3.5008 0.1043 -0.4934 -6.1453 -12.5367 -0.8233 1.1556 -2.0076 -12.7030 -24.1470
-1.2029 -3.6344 -5.6295 1.8112 1.5787 -2.8891 -6.7047 -2.6626 -0.2640 -5.3017 -6.8621 -4.0909 -3.1359 -4.2405 -10.2790 -11.0903 -4.3880 -2.1753 -8.1783 -11.9786 -4.8248 -3.2634 -5.3063 -11.5873 -17.4409 -4.6362 -12.6593 -18.0096 -22.2022 -26.3604
0.1728 -4.3567 -8.9872 3.4974 1.9836 -4.4031 -10.7450 2.1686 0.6092 -4.8711 -8.1157 -6.6189 -3.5603 -4.9683 -12.9622 -11.7997 -7.0968 -4.8850 -10.5093 -14.7816 -12.2155 -7.8622 -10.0848 -16.5240 -20.6465 -22.7885 -31.6765 -30.8469 -26.5360 -29.3253
0.6111 -4.6206 -6.7052 1.4570 0.9741 -3.8918 -7.0095 0.0882 0.4768 -2.9955 -5.4147 -6.8781 -4.1451 -3.0806 -9.7215 -5.0822 -9.6531 -5.1419 -6.7748 -9.8805 -18.1610 -8.1946 -8.4339 -9.7541 -8.8684 -38.4107 -36.1427 -21.6175 -7.1350 -10.2868
1.4860 -3.3801 0.8659 -0.2581 0.4974 -1.3142 1.9871 -4.3076 -0.1444 -0.7593 0.0145 -3.0554 -3.7828 -1.3144 -3.4623 4.1423 -7.2963 -3.0403 -1.8376 0.0401 -12.3027 -3.2483 -2.7089 2.4355 7.7699 -26.4141 -19.3573 -2.7657 14.6646 16.4205
4.6596 -0.9058 3.6132 2.0182 1.6357 0.0348 3.5516 -2.4323 0.0484 -0.3169 1.5857 3.5028 -1.1779 -1.4042 -0.6278 7.4581 0.4050 -0.5131 -0.9466 4.3411 1.1898 1.9295 -0.1526 5.7552 10.7853 1.5988 -1.9808 4.0940 11.0500 17.9313
7.7719 1.9510 0.9048 5.3403 3.5072 0.0198 -0.8848 3.0236 1.2403 -1.2576 -0.7683 9.9597 2.2916 -1.4610 -1.1757 5.1710 7.7744 1.9105 -1.3692 1.7977 12.5046 6.4861 -0.1274 1.9658 3.2373 21.4972 7.7110 5.3971 -2.6644 0.3045
7.4192 2.1122 0.0193 6.0689 4.4920 0.5742 -0.0638 5.2897 1.6113 -2.9238 -1.4282 12.7609 3.2344 -1.8490 -1.6009 1.6350 10.5632 3.1401 -0.6408 -1.0174 18.4260 11.3279 0.8446 0.3558 -1.6720 30.1025 18.4227 11.2671 -3.6625 -8.4828
5.5655 0.1422 1.5971 5.0848 4.1467 1.5769 4.6986 4.6050 0.3119 -4.8867 0.4951 11.1277 1.1158 -4.2453 -1.9611 -1.2588 8.8935 1.0566 -1.5652 -1.9549 17.5453 11.4214 -0.4720 -0.8487 -3.5636 28.0802 21.5160 10.1891 -3.2434 -7.9118
5.9163 1.2914 2.9625 4.4980 3.5099 1.8100 4.3510 4.1452 -0.4857 -4.6302 1.6361 8.4726 -0.6696 -5.5078 -2.8050 0.8021 5.2799 -2.2135 -3.5078 -0.9131 11.4462 5.7488 -4.5857 -3.5224 -4.7823 16.4201 9.4858 2.1314 -7.2529 -6.6683
7.0958 4.8158 4.6173 4.4044 3.1482 1.1941 1.0544 4.3272 0.4585 -2.3698 1.2600 6.8230 -0.6589 -3.5096 -2.1584 9.0260 2.3935 -2.8571 -2.5572 2.8329 6.1775 1.3632 -5.4165 -1.6352 -1.5214 5.5384 -0.8489 3.9113 0.6833 3.0969
6.5435 4.2859 5.6552 4.1251 2.6375 0.8072 1.9152 4.0603 0.9820 -2.5464 1.6556 5.2416 -0.7678 -2.9075 -0.1981 12.9724 1.5719 -2.4511 -1.0702 5.1093 3.9586 0.5505 -3.6418 2.8766 2.9052 2.4418 -1.0109 9.4562 12.2540 16.2965
5.4141 -0.1109 4.2802 3.9292 2.1498 0.9649 3.5061 4.0973 0.1079 -5.1494 2.9354 4.7338 0.1134 -5.3155 0.0945 5.9714 4.5848 -2.2215 -2.6956 1.9334 7.3168 2.5787 -3.8706 1.8145 0.6527 13.2754 5.4379 6.5925 5.4502 11.1104
3.9668 -2.2463 2.9326 3.7293 1.7930 0.6411 0.6758 5.1385 -0.1468 -5.5213 2.3804 6.7480 4.1977 -4.9569 -0.6857 -1.0547 11.7671 1.6307 -2.7457 -1.1586 20.5279 10.9891 -1.0591 0.5001 -2.0364 41.6291 26.6914 13.3626 -0.4616 -1.4421
0.9152 -0.2880 4.0849 2.3950 0.8207 0.4026 -1.4362 4.2656 0.7116 -3.1529 0.6543 8.0193 6.7620 -0.5641 1.2721 2.6303 15.3788 7.3094 2.5178 2.5655 30.2870 19.5933 7.7865 8.5053 6.6311 57.3510 48.5517 35.0397 21.3095 14.4200
-0.9074 2.1918 4.8118 0.8944 -0.2216 1.6138 0.5032 1.3548 1.1585 -1.2409 0.9872 4.6359 3.5305 1.7985 4.7174 9.9761 7.8733 6.7967 6.3691 8.3803 16.4285 13.4363 11.5113 16.8577 18.7343 25.4778 31.6170 36.7557 42.3579 46.1938
0.8458 1.5291 1.4761 1.4666 0.0465 1.9743 -0.0230 1.4652 0.9998 -1.1532 1.5523 -1.2173 0.1497 0.3069 4.4193 9.6592 -2.9033 1.2896 4.1253 8.0608 -8.3890 -1.7971 5.5344 12.9176 17.8814 -22.3771 -8.7862 11.7158 28.8933 46.4019
1.9788 -1.9343 -2.9465 2.7277 1.0307 -0.3156 -3.7248 3.2200 0.7472 -2.2845 -0.1325 -3.9302 1.0309 -1.0184 1.0864 3.6209 -4.6861 -0.6242 1.4857 3.0544 -13.5636 -4.9356 1.6607 3.8556 6.9004 -25.9125 -15.0920 -2.1350 3.7612 14.8855
0.5651 -3.6085 -1.3351 2.4411 1.7892 -1.0335 -1.8762 0.6162 0.2907 -3.3423 0.0477 -1.9656 1.0826 -1.4962 -0.5259 0.0670 -1.1802 0.3317 0.4568 -2.1075 -2.5856 1.4637 1.9532 -1.5184 -5.2249 4.1016 3.3269 -3.6405 -12.1738 -18.8854
0.6604 -1.1100 5.6711 1.7765 2.6190 2.0093 4.6673 -3.8347 -0.0980 -3.0064 3.7033 -0.5902 -2.6572 -2.9405 -0.4234 0.6122 -3.5662 -2.2252 -3.3770 -6.5579 -3.8704 -2.6973 -3.7439 -7.0585 -16.5177 5.9699 -7.9995 -21.5820 -30.4777 -41.7298
0.9411 0.7579 7.0136 1.1002 2.1920 3.0797 4.9656 -5.4153 -0.1591 -1.2686 4.2090 -5.2927 -5.5229 -2.7366 0.0378 2.5099 -10.5125 -4.9814 -5.0517 -5.2856 -18.6360 -13.3942 -8.1995 -6.6377 -12.4775 -28.7215 -32.9863 -28.7710 -24.8229 -22.0794
-3.2666 -2.9875 -1.6806 -0.4822 -1.0224 -1.0148 -1.5295 -5.7718 -0.2240 0.1732 -0.6623 -11.6549 -4.0048 1.1040 1.9433 3.5487 -11.0124 -0.9335 2.4104 4.2418 -20.0514 -9.2264 2.8356 8.8850 13.5512 -42.8090 -16.0734 10.0754 30.3808 47.4934
-6.8400 -8.5605 -8.3309 -0.3124 -3.7652 -4.4965 -4.6739 -4.3884 -0.1548 -0.4798 -3.4176 -9.8681 0.5799 3.4695 3.2370 1.4417 -1.9175 5.9579 9.2800 9.3122 0.0337 7.2335 16.3387 20.4629 26.7904 -5.8495 24.5117 44.2602 64.1822 77.4452
-2.9500 -8.6874 -3.6619 3.2324 -2.0965 -2.6866 -1.8017 1.1543 0.5869 -2.5891 -0.0158 -1.0726 5.0763 0.9189 0.9035 -2.7947 7.0011 7.3689 5.0255 1.0711 17.6205 13.7131 12.4853 8.8146 3.8167 37.1054 29.0527 19.3054 16.4030 14.1196
2.9635 -3.8369 3.8089 5.7024 1.3094 0.6324 0.5074 5.7680 1.8297 -3.6963 3.4491 4.2963 6.4732 -1.5573 -2.3739 -3.2938 6.9863 4.3060 -2.1111 -8.4829 14.4360 5.9033 0.8552 -8.4401 -22.5649 33.8635 1.7891 -23.2324 -44.9573 -53.6918
3.5678 -0.4210 4.5810 4.1047 1.8324 0.8113 -0.3176 3.9998 2.6640 -2.9408 1.9280 3.4943 4.3726 -0.0872 -2.8527 2.0909 1.6793 2.5248 -2.1625 -8.1988 1.2488 -1.4849 -0.9483 -10.2493 -23.7029 -2.1495 -11.6525 -29.4995 -49.8433 -55.0543
1.4822 -0.9587 2.0132 1.5537 0.3847 -0.2859 -0.3462 -0.7490 2.1264 -1.4151 -0.6368 1.3976 1.0925 1.8972 -0.9373 7.6588 -2.1750 2.1170 1.4057 -2.6143 -7.1437 -2.8475 3.0089 -2.8263 -13.3898 -27.9740 -10.0290 -17.0594 -27.2813 -31.1050
0.4448 -2.4914 0.3172 0.3512 -0.4711 0.3162 1.7262 -3.8775 -0.0295 -0.4643 -0.1147 -0.4540 -1.9170 0.9734 1.1608 7.7168 -4.9905 0.3283 3.1066 1.9452 -11.4124 -4.0576 3.3217 3.0938 -5.7771 -33.8627 -18.2392 -14.6118 -13.3815 -17.2398
-0.9122 -1.8463 -2.0352 -0.4752 -1.1428 1.1920 2.2966 -4.9197 -2.3860 -0.5673 0.7649 -1.7132 -3.5660 -1.1306 1.7828 2.8364 -6.4220 -1.3960 3.0664 4.2391 -11.5415 -4.7521 2.6642 6.1634 -0.2319 -28.1492 -25.8795 -13.7733 -4.1232 -6.0531
-2.1359 0.4686 -3.9062 -0.2441 -1.6434 1.3148 0.4116 -2.7270 -2.4064 -0.3830 0.1474 -0.5515 -1.7941 -1.4154 1.5551 -1.8382 -2.5872 -0.4006 2.7678 4.4647 -3.8664 -1.4099 4.2832 6.4717 1.3322 -13.0450 -15.2879 -6.8469 0.2510 -1.2817
-0.6382 0.3593 -2.5185 2.1751 -1.1419 2.2185 0.3841 2.5663 0.0973 0.8133 1.1253 0.7881 1.8197 -0.2550 2.5834 -1.5473 2.8291 1.1768 3.1035 4.5189 3.0191 1.1857 5.2849 6.0655 0.5277 -1.3134 -3.4043 -2.1026 -0.0652 -0.8860
2.2309 -4.1115 0.0466 4.1543 -0.7960 3.0396 4.2121 5.3944 1.7643 0.9761 3.8339 0.2517 2.9139 -0.0523 4.1420 3.1657 3.7526 0.7045 4.1252 5.8494 2.8953 1.1401 5.6150 7.9586 3.8122 -0.7323 1.2163 4.4438 8.3738 10.6809
3.7555 -8.1879 1.6254 3.4203 -0.6996 2.3363 7.7264 2.8260 0.9525 -0.2159 4.7622 2.1996 2.2578 -0.6709 4.2083 7.0915 5.0292 0.8864 5.0005 7.4834 8.1196 6.0987 8.1668 10.9787 9.4647 9.5688 19.1277 22.2330 23.8094 25.5072
4.6298 -6.4534 4.3918 2.6531 1.2086 2.7203 8.1731 0.3781 0.2787 -0.0780 4.5350 7.4413 2.7717 -0.5924 3.6440 7.6447 9.8147 2.7971 4.5226 8.1203 20.1395 12.9973 8.9404 11.1039 10.0516 32.1731 39.0892 32.3739 25.0391 22.6406
5.8811 -0.4144 8.2686 4.2491 3.7136 5.3174 8.2321 1.6510 0.8207 0.8394 5.7328 8.6798 1.9921 -1.4195 3.0069 6.9744 8.1512 0.7807 0.7765 5.6625 17.4557 6.9015 0.7435 4.6077 2.0112 29.5010 22.3019 10.9681 3.8156 1.8268
5.6820 3.8356 7.6390 5.3389 3.5175 5.9557 8.0053 1.8192 0.2292 -0.1469 6.3946 3.7314 -1.5164 -4.3293 1.3943 6.0834 -2.1612 -5.9624 -4.8660 0.5897 -1.5446 -8.3540 -10.5389 -4.2598 -6.4006 -2.0053 -13.3121 -15.3979 -11.7640 -9.8249
2.6361 2.2311 0.5621 3.1221 1.4856 2.7157 3.1595 -2.0819 -1.5903 -1.3997 4.0166 -1.6224 -3.0050 -5.5601 0.6826 4.5971 -7.1151 -8.5025 -5.6552 0.3797 -9.9152 -11.3266 -10.1411 -2.3409 1.8892 -13.0824 -12.8892 -2.2506 13.0519 18.1483
-0.9278 -2.8501 -5.0641 0.5003 0.3520 -0.8764 -4.5548 -5.2190 -2.2123 -1.2672 0.1349 -4.6849 -1.0003 -3.5678 1.6814 4.2660 -2.5295 -4.1395 -1.0404 6.5256 -0.3327 -0.5291 -0.4138 8.7817 20.5183 10.7809 16.6123 30.7810 52.4258 59.5205
-1.9181 -4.5915 -2.6027 1.5554 0.1641 -2.3604 -7.5267 -3.4156 -1.4198 -2.8373 -3.3219 -6.3925 -0.0288 -3.2100 0.2559 4.2764 0.3240 -1.4417 -0.9919 6.1614 7.0966 4.6553 0.5470 7.6164 15.6220 30.1578 26.8486 30.3321 42.1156 43.5169
-0.8541 -1.4795 2.2527 4.9783 0.4725 -2.9068 -5.2764 0.8439 -0.5782 -6.6061 -6.3724 -6.3838 -1.1773 -5.9559 -4.3696 0.6093 -1.8059 -3.6482 -8.1643 -5.4697 3.8552 -1.2411 -9.6886 -9.5743 -14.9075 25.2964 13.5888 -0.4436 -11.9467 -22.5197
0.0494 1.0051 1.9028 6.4321 1.4898 -3.4271 -3.3225 2.2023 -0.1615 -8.1586 -8.5912 -5.1881 -1.9136 -7.1185 -7.1638 -4.2179 -3.4848 -5.4376 -12.6971 -14.0525 -3.3429 -7.6938 -16.5688 -20.9066 -31.0333 8.2350 -1.7334 -23.5019 -43.8639 -53.2489
0.7339 0.2908 -1.2664 4.7968 1.9339 -2.9220 -2.0740 -1.2805 -0.2655 -6.3014 -7.8166 -3.9249 -2.2627 -5.4023 -6.2209 -3.8584 -5.0433 -5.2793 -10.2625 -11.1652 -11.3568 -10.2780 -14.5289 -17.0699 -19.2391 -12.8891 -16.0863 -28.8905 -34.9780 -30.2057
1.3335 -2.3102 -3.4239 2.3862 0.5449 -1.5487 -1.1306 -5.1828 -0.4442 -3.7189 -3.0222 -2.2596 -1.9377 -3.1305 -3.5365 -0.3730 -5.8645 -3.6398 -5.0963 -3.9204 -13.3241 -7.8600 -6.7201 -6.8333 -2.7847 -22.1457 -16.8768 -14.7005 -8.0231 -0.0225
0.2066 -6.0959 -5.6453 1.1115 -1.2532 -1.9370 -4.4063 -3.8896 0.1256 -1.9632 1.4369 -1.7924 1.0942 -0.4195 -0.5207 0.9176 -1.4774 1.6320 0.7059 2.2456 -2.8527 1.6197 4.6920 4.8461 8.6195 -6.0053 9.2540 19.0012 25.5312 29.2012
-2.5380 -7.6041 -6.6544 0.7768 -1.5000 -4.5328 -9.2137 -0.0556 0.7071 -2.0751 -0.6275 -4.4549 4.1775 1.5200 0.2358 0.5311 2.2336 6.1970 3.7457 4.7163 4.7657 7.7034 10.1900 10.6905 13.4691 5.5009 26.6645 33.1049 38.3129 50.2769
-4.1592 -3.7032 -4.2139 0.1782 -0.5236 -5.9101 -7.3265 -1.3482 -0.0200 -4.3268 -7.5978 -7.0338 2.2107 -0.4354 -3.6178 -1.8294 -3.3900 2.2930 -1.5585 -2.4169 -4.9791 -0.7347 0.8281 -0.1926 -2.3575 -11.3297 1.7017 -2.6791 -0.1975 17.4939
-3.6517 0.4053 -2.1459 -0.6369 0.5044 -5.2210 -2.2158 -6.1718 -1.4053 -5.9403 -11.6789 -6.9224 -2.9435 -4.4310 -8.6975 -7.7580 -11.2976 -5.6318 -10.7151 -15.6859 -17.2490 -12.5583 -12.5734 -18.7143 -31.7741 -22.6628 -30.4928 -45.8055 -54.8186 -53.7717
-3.0239 -0.9871 -5.1143 -0.8259 1.0483 -5.9732 -4.5148 -6.9497 -2.2384 -4.9448 -11.0613 -8.2021 -5.4880 -5.3894 -9.4955 -12.0703 -12.3600 -7.5345 -12.8469 -20.1317 -18.8067 -14.1976 -14.5442 -23.0572 -40.0918 -13.0796 -32.9465 -47.0050 -62.7353 -76.5067
-4.1097 -4.2875 -11.4074 -1.6774 0.3550 -8.8546 -12.0993 -6.4329 -2.6932 -3.4922 -10.5728 -12.4409 -5.2044 -2.9696 -6.3466 -10.8895 -11.4751 -4.5759 -7.6310 -12.1091 -19.7974 -12.2484 -8.5048 -12.9868 -20.7069 -16.8831 -25.9547 -25.0048 -29.8290 -34.2209
-6.1166 -4.5880 -15.2754 -4.0861 -1.4821 -10.0394 -14.6454 -10.5045 -2.7735 -3.5212 -11.0465 -13.7544 -5.2067 -0.6112 -3.9628 -9.3427 -12.7732 -3.2192 -3.5051 -5.4551 -22.9491 -13.4429 -5.5427 -7.2155 -6.9286 -32.5619 -27.7162 -17.2143 -10.0904 -3.8392
-7.0018 -3.9201 -12.8998 -5.1144 -2.7224 -8.1823 -12.0289 -13.3645 -2.0719 -4.1079 -9.4825 -11.1323 -5.1484 -0.1606 -4.2789 -9.5260 -11.4593 -3.3078 -3.5511 -8.0466 -17.7865 -11.5960 -6.0529 -11.1292 -14.8427 -24.3049 -23.7949 -20.9968 -17.9920 -19.7605
-6.6177 -5.0651 -6.6110 -3.7182 -2.9668 -6.3610 -10.6842 -10.3385 -1.4530 -4.3719 -7.0192 -10.7827 -3.3715 -0.8872 -4.7344 -6.5180 -7.4352 -2.2131 -3.8944 -10.4037 -8.7005 -5.2835 -4.4772 -12.0236 -21.1047 -3.9141 -12.1893 -18.3334 -23.2828 -32.5970
-5.5208 -6.4547 -2.8377 -3.0586 -3.5485 -5.9807 -9.6239 -7.2153 -1.2688 -4.1802 -6.0555 -12.1303 -0.9699 -1.0245 -2.8575 -0.9178 -5.9738 -0.7570 -1.8982 -4.1989 -9.0181 -2.2448 -0.5987 -4.0988 -8.9178 -8.3385 -10.3744 -10.7913 -11.0501 -11.7488
-2.9504 -6.8417 -3.8064 -2.5548 -4.1766 -5.1810 -6.0223 -4.9309 -0.0553 -2.9571 -5.2703 -10.0300 0.4948 0.1888 0.0369 1.2299 -6.1680 -0.1962 0.7798 3.8997 -14.5621 -4.3608 1.1193 2.7838 5.1967 -26.2767 -18.3846 -8.0610 0.6496 9.1403
-0.2516 -6.6694 -5.6072 0.6574 -3.6255 -3.7839 -3.9554 -0.1616 1.7553 -1.1980 -4.0983 -7.0840 1.2592 1.6156 1.2814 0.0212 -3.7661 0.2193 2.4872 5.5702 -11.4431 -5.3075 0.0445 2.6448 5.8560 -22.1651 -16.2773 -6.6297 -0.4661 5.6698
-0.7671 -4.6311 -5.9574 2.5617 -2.6391 -3.2641 -4.6880 0.5676 1.3586 -0.6699 -3.6629 -6.0922 1.2204 1.8042 0.8174 -0.5003 -0.5421 0.5765 3.6633 3.6401 -2.2646 -2.4177 0.4311 1.8837 2.1277 -2.7890 -1.6834 -0.4118 -2.1822 0.0060
-4.1459 -0.3546 -6.5516 -1.2520 -2.7064 -2.9511 -3.7681 -6.4654 -1.0330 -1.1613 -2.9402 -4.0216 -0.2418 0.8862 0.4468 -1.3957 -0.1679 0.1286 4.2945 3.5376 0.1789 0.5956 3.9284 4.8880 3.4456 1.2306 5.5365 6.3134 6.8802 9.3070
-7.3106 2.8105 -6.7606 -4.7975 -3.8288 -2.4482 -2.7734 -9.0919 -1.7927 -0.7995 -2.1112 -2.5632 -0.7269 0.7703 1.5233 -3.8604 0.9933 1.3937 4.7786 5.5001 0.9631 3.9827 9.2334 9.8070 7.0505 0.4784 9.2688 15.7825 22.6332 24.7172
-8.7916 3.4589 -3.8386 -1.4055 -4.8933 -3.6994 -4.8604 -0.4740 -0.0416 -0.2172 -3.8446 -4.6294 2.7668 2.2711 3.6479 -3.1850 7.5504 6.5861 6.2549 7.9483 12.5432 10.9654 14.6428 14.4443 10.3803 22.4223 29.6709 32.0509 34.0449 36.6331
-7.7570 5.2286 0.4542 3.7346 -4.6722 -5.0450 -5.1581 6.8599 1.1863 -1.1301 -5.9678 -4.3682 6.5565 2.6669 4.1863 1.5637 12.7956 9.7058 6.2993 8.5476 21.7504 14.7096 14.5739 14.4219 11.0624 39.8756 42.3440 34.8043 30.0795 35.0458
-4.1846 9.2182 2.7739 3.3554 -2.8748 -1.3528 -1.9739 3.6992 0.8441 -2.1294 -2.9842 1.7038 5.5843 0.2692 2.1209 3.4475 10.1997 5.7921 2.8686 6.1228 14.3018 9.7374 7.5416 8.6753 6.5322 21.9477 21.2699 15.2786 13.2681 14.4169
-1.0664 9.7638 4.5076 0.5560 -1.1551 4.8115 -0.9422 -1.1751 1.1874 -1.8196 3.1508 7.5644 4.3961 -1.4611 0.8968 0.7634 9.7040 3.0795 0.9604 4.0982 12.8145 9.9290 5.3901 5.9525 1.8030 15.4215 13.9528 10.4819 4.0593 -6.7646
-0.9695 4.7912 5.8833 0.8741 -1.4486 4.6926 -1.7689 0.5276 2.2325 -2.0069 5.4151 9.0654 8.0410 -0.3598 2.6488 -0.1906 17.5429 7.5441 3.6437 4.9965 29.6625 21.3367 12.9091 9.9749 2.6403 49.4107 46.6477 32.3015 12.0318 -5.6791
-1.8803 1.6293 3.5612 2.7689 -2.9373 -0.7004 -0.1981 3.9921 1.6976 -3.1704 2.9825 6.9192 10.2843 0.2114 4.5296 2.2835 18.9859 9.4943 5.0185 6.5616 30.4938 22.1618 14.8163 11.6730 6.9696 56.2300 48.9737 33.5857 21.0570 15.0018
-0.9161 3.6416 0.8327 3.4355 -3.1550 -2.3865 2.5060 3.9333 0.6341 -2.9851 -0.4278 2.6798 7.0035 -0.8435 4.2846 3.6411 8.9398 4.1861 2.3629 6.8451 6.8859 7.0463 5.7386 6.9841 9.8490 15.9659 2.3094 6.0790 17.6200 31.5205
0.7520 4.1321 3.2138 3.7726 -1.8979 -0.2767 3.6666 2.9508 1.5742 -1.4379 -3.5775 0.6281 5.2777 -0.1448 2.8105 2.1977 5.4190 2.0282 1.0414 5.3150 1.7278 3.2740 1.8307 2.5179 7.1836 9.8754 -4.8190 3.3186 9.7454 21.3741
0.8336 0.7526 5.2215 4.0326 -1.0880 -0.6401 2.0502 3.2474 2.8555 -1.1278 -5.6438 2.7022 7.4450 1.5750 0.9872 1.0158 11.7005 5.4886 2.0599 2.3400 19.6092 15.1340 7.1468 1.5767 0.2406 43.2907 39.5615 31.6357 10.9037 -4.6350
0.1799 -0.7967 1.6904 2.5946 -1.4463 -2.2182 -1.8160 2.3202 1.9386 -2.3058 -4.5935 4.0469 6.9929 0.6536 0.0078 2.6447 11.0351 5.2825 1.3719 1.8737 20.2912 16.8311 8.4621 2.6454 -0.1051 37.7251 49.0291 42.1668 22.4624 -3.9642
0.4816 0.4703 -0.7230 0.1598 -1.8043 -0.7973 -3.3735 -0.6772 0.4592 -2.8367 -1.5355 2.5918 3.3808 -1.2719 1.1463 4.9869 3.2865 1.2305 -0.4033 4.9634 4.5994 5.9085 3.9622 4.0765 8.8136 2.6753 15.6610 24.1199 28.5564 26.0125
1.5045 1.0976 1.4613 0.3292 -1.0887 0.6092 -0.9201 -2.0047 0.4041 -2.6282 -0.5005 0.5286 1.1430 -1.8696 1.5864 3.9972 -0.7884 -1.2236 -2.3740 3.6961 -2.2325 -2.0290 -0.8031 0.0882 8.4581 -6.2985 -7.1019 -2.0787 7.4379 27.3272
2.5677 2.3722 3.0252 4.3855 0.2681 -1.2724 1.5764 1.2461 0.6729 -3.2066 -2.0021 -2.7504 0.3299 -3.5205 -1.9683 0.3007 -4.7458 -4.0553 -7.0711 -5.1999 -9.9032 -8.6764 -7.9104 -11.5837 -9.8922 -11.7862 -24.9855 -32.3098 -34.7825 -18.3097
3.3441 5.9878 2.9317 7.6804 0.9817 -2.3428 3.1133 5.4440 0.6108 -3.5453 -2.0251 -5.0659 0.3512 -5.6111 -5.2883 -1.8600 -10.3523 -7.1022 -10.8056 -11.0914 -24.9641 -15.4523 -13.7646 -19.0747 -23.8607 -36.8082 -47.6807 -52.7140 -59.6531 -52.0250
2.9526 8.1840 2.7423 5.2600 0.5298 -0.0920 4.5337 3.3725 0.9306 -1.8320 0.4275 -1.9711 1.6140 -3.6000 -2.6369 -1.2187 -9.4704 -5.3375 -7.0438 -6.7057 -27.1935 -13.2998 -9.9826 -13.3634 -17.0328 -46.7449 -44.3863 -42.4108 -47.8881 -39.7346
0.7825 6.8413 0.6911 -0.1678 -0.5474 0.8301 3.5663 -4.4216 0.8088 0.1490 1.1044 1.6904 1.4086 0.8827 2.4530 0.2414 -5.1027 -1.1503 -0.2420 -0.0250 -16.9114 -6.8827 -2.0569 -4.1553 -4.7811 -33.0248 -20.9689 -17.6161 -22.9109 -14.9013
-1.9175 5.4535 -1.2438 -1.9931 -1.1387 -0.8487 0.5247 -8.6426 -0.4387 0.3812 -0.5503 -0.9914 -1.1894 2.2178 3.4496 0.9791 -6.2998 -0.2370 1.2042 0.6523 -13.4643 -6.9790 0.0923 -2.5469 -3.1120 -22.8936 -13.2673 -7.9982 -10.6952 -6.6361
-2.9038 4.7618 0.8492 0.3538 -0.4103 -0.5770 -0.4411 -6.5639 -0.9852 0.7425 0.4710 -6.6835 -2.8593 1.1149 1.6891 0.7822 -10.4722 -1.3211 -0.7067 -1.6795 -17.4065 -9.8085 -1.1138 -4.9925 -5.8653 -22.8237 -18.9357 -11.9977 -11.4608 -7.7459
-2.0531 0.8001 2.9222 2.0242 0.3923 0.3212 1.5594 -4.8372 0.2320 2.0218 2.9937 -9.4763 -2.3904 1.7780 1.3141 0.3409 -11.7771 -0.8907 -0.1244 -2.1568 -19.1319 -9.0380 0.1630 -4.2632 -4.1220 -24.7834 -16.8932 -12.0117 -12.2342 -7.1541
-2.3150 -4.3329 -0.5137 0.7871 -0.8159 -2.9501 1.8560 -5.8487 1.2073 1.2396 0.2455 -9.1112 -1.3291 3.6337 1.2441 0.1012 -10.3112 1.0475 1.7804 -2.2955 -16.9468 -6.7824 2.8078 -1.4937 -1.4519 -23.6835 -7.3277 -4.4668 -6.4815 -5.1559
-5.4271 -3.5045 -6.2055 -1.6786 -3.0103 -6.5250 -4.4648 -7.6164 0.2983 -1.4582 -4.7092 -8.6429 -1.0868 3.8339 -0.2407 -0.8079 -8.3249 2.4560 1.9724 -3.8541 -13.5053 -6.0171 3.7137 -0.9881 -2.3942 -17.6496 -2.1388 0.2539 -1.1562 -4.1499
-8.3711 0.0027 -9.1483 -3.4663 -3.7171 -5.9425 -14.0325 -10.0606 -1.0299 -2.3685 -4.2835 -10.9387 -2.1540 3.0895 -1.1520 -2.1923 -8.1782 2.2214 2.2257 -3.8815 -12.7076 -6.2809 3.9991 -1.4761 -2.6732 -15.4989 -5.5877 -2.5731 -2.4429 -1.5358
-8.1610 -3.2603 -10.3868 -3.2360 -3.5126 -6.9079 -17.6414 -9.8465 -0.7564 -2.3661 -3.8003 -14.3310 -1.7641 3.2675 -1.1442 -2.3697 -8.7853 2.4367 3.9538 -1.7149 -12.8986 -3.9295 6.9851 -0.1559 -0.4312 -17.4340 -5.8690 -2.7465 -4.1566 1.6594
-6.9963 -9.4975 -11.0903 -0.7190 -3.9027 -12.1863 -14.5248 -3.5591 0.7102 -4.2242 -9.6722 -13.6881 2.9108 3.7206 -2.5546 -2.2217 -4.6798 5.4731 4.5757 -1.8735 -4.6267 4.1042 11.9945 0.3507 -2.6326 -0.5416 10.1245 5.1153 -3.4182 -4.5193
-7.1054 -8.7399 -9.0727 1.8592 -4.1341 -14.1657 -11.1293 2.7637 2.0468 -4.6130 -13.4033 -9.1490 8.2638 4.3800 -3.5470 -2.4400 3.4831 9.4581 4.3913 -2.9176 9.9846 12.9490 15.6420 0.2885 -5.8154 33.6924 29.4482 12.1014 -1.3237 -10.5736
-6.3565 -3.9613 -5.7007 1.8419 -3.4343 -10.1113 -8.0391 2.1775 3.0696 -0.5880 -8.8613 -5.9987 9.0117 6.6532 -0.4981 -0.2675 6.4590 10.9310 7.2465 2.3276 12.8211 13.7578 17.8159 6.4047 4.5130 40.3265 28.2859 16.5985 12.0736 10.8814
-4.2060 -2.5902 -5.4776 -0.0520 -2.2194 -5.7987 -4.1345 -2.7782 3.4786 2.8223 -3.9174 -6.0468 5.5198 8.3104 2.7700 1.8843 1.0703 8.8587 10.3381 8.8023 -0.2541 6.3682 18.0370 14.2656 19.1313 6.5770 11.4373 21.7987 30.5129 39.9844
-3.4038 -3.4687 -6.8438 -0.3469 -0.9453 -3.5077 -3.2633 -6.2185 2.5916 1.3525 -2.8457 -7.5897 0.9966 5.6475 0.5593 -1.7151 -4.8892 4.5414 7.0535 4.5667 -11.1145 -0.7971 12.8944 9.8122 13.0168 -19.8106 0.8355 16.9082 23.1007 25.9931
-3.4341 -5.1436 -5.6810 1.4472 -0.6034 -2.3184 -5.1805 -6.3627 1.0018 -1.4285 -1.7414 -9.4766 -2.4794 1.0986 -3.2305 -5.3698 -6.3411 0.5741 0.7019 -4.1938 -11.9266 -3.3417 4.7278 -2.3684 -4.2635 -17.8214 -3.2479 -0.9793 -3.9467 -8.6485
-2.0121 -8.4976 -5.0513 1.1526 -1.8406 -3.3053 -4.6573 -5.7859 -0.3073 -2.2326 -1.7055 -9.3678 -4.0118 -0.7174 -2.7081 -1.9206 -6.1238 -1.5001 -1.1498 -4.0411 -12.8684 -4.5391 0.3950 -5.1579 -5.1403 -18.5110 -12.2970 -13.1818 -10.0980 -3.9027
-1.0443 -8.6752 -7.6664 -2.2253 -3.0737 -5.5746 -3.0845 -6.6257 -1.1174 -3.0840 -5.2756 -5.3879 -3.4725 -0.9627 -1.5364 0.1199 -4.6857 -2.1699 -1.0555 -1.5020 -12.6244 -4.9837 -0.1746 -1.7385 0.3371 -21.4142 -16.2962 -11.7124 -1.9052 13.7213
-2.2591 -2.5679 -8.0244 -3.6823 -2.5559 -6.3101 -5.5967 -6.1341 -0.9757 -4.4004 -8.0085 -1.0166 -0.9333 -2.0120 -4.1430 -5.5644 0.8916 -1.5688 -4.0601 -6.8160 -1.1401 -0.5092 -0.8369 -5.2428 -9.3749 1.5279 -0.7627 -6.4766 -12.2964 -9.8945
-2.5598 2.7674 -3.9329 -1.6566 -1.0868 -5.4623 -8.4174 -2.7595 -0.0302 -3.2410 -6.0461 0.2491 2.0594 -2.2479 -6.0002 -8.3403 6.6728 -0.1868 -6.2858 -10.5911 10.6288 5.6162 -1.1506 -9.5672 -18.1720 24.0160 17.2220 -1.1537 -23.3557 -36.1353
0.2672 2.1949 -0.6277 -0.1662 -0.4347 -3.5621 -3.7796 -1.3385 0.1488 -0.3878 -0.9945 1.2985 2.5589 -1.2478 -2.7059 -2.0585 5.6565 -0.2871 -4.1250 -4.3253 6.1741 4.5162 -1.0483 -4.7824 -7.5504 7.6551 13.6563 3.3546 -9.8732 -14.6485
3.9322 -0.5637 1.1350 0.4081 -0.7172 -0.4844 4.6976 -3.5665 -0.6760 0.2148 4.1811 3.9493 0.9290 -1.4614 1.8195 4.9388 0.9230 -2.0017 -1.8164 2.4178 -3.6911 -1.4336 -2.7416 0.7669 4.9143 -14.0954 0.1096 1.2843 1.9064 14.2980
5.9567 -2.3864 4.0671 3.6364 -0.6955 1.3923 6.8514 -2.4046 -0.7804 -1.3960 6.0211 3.8139 0.9703 -2.9862 2.4855 7.1085 0.4165 -2.5054 -2.4289 1.9329 -2.1515 -2.4875 -4.8707 -1.4276 2.0581 -1.0834 -1.8040 -4.2863 -7.4206 6.6307
6.0475 -2.2795 6.6751 8.5674 0.1561 0.6228 4.8699 6.2061 0.2257 -2.2477 3.5554 0.1103 3.9762 -3.8617 0.3419 6.1507 2.8490 -1.2746 -3.4207 -0.6847 2.4869 0.4789 -4.7460 -4.9740 -5.2420 16.3946 0.6254 -5.2108 -14.8330 -10.3926
4.5130 1.1537 7.4169 9.5873 0.4975 -0.2734 7.2251 13.7924 0.8637 -2.0140 1.1117 -1.1060 7.2968 -3.5938 -0.6406 3.4438 2.7740 -0.1266 -2.9158 -0.9674 -1.1514 1.6029 -2.9646 -3.8191 -4.9047 6.5669 -2.6091 -2.5322 -9.6882 -8.9813
1.7058 4.4456 5.9351 4.5801 -1.0874 -0.4874 7.8457 9.8334 0.3996 -1.9845 1.0337 2.0220 7.7061 -2.2448 0.7060 1.2798 2.4492 1.3523 -1.2203 0.2629 -3.3658 4.2109 0.0665 -0.3458 -0.4278 -3.6910 2.1435 2.1081 -5.6069 -2.6482
-1.1978 4.0671 2.0048 -1.7857 -3.1958 -1.3766 -0.4585 -1.6601 -0.4175 -1.4840 1.1057 5.0618 4.3626 0.2851 2.8119 2.6258 5.3005 3.9472 1.5507 2.3305 3.1756 10.1694 4.2389 3.0255 2.4554 6.6042 17.1435 8.9507 -3.4781 -0.9000
-2.0146 4.5499 -0.4330 -3.7931 -3.1454 -1.8849 -5.6428 -7.6367 -0.9554 0.4674 1.5100 5.5814 -0.1730 2.5023 4.6382 6.8863 5.9093 4.8297 3.9841 4.4264 4.2088 9.6187 5.6920 5.4642 4.2427 8.3561 14.4927 8.2843 1.4214 4.3361
-0.0288 8.2822 0.6475 -0.9121 -1.1700 -1.4281 -1.0041 -5.8739 -1.4217 2.4023 3.4907 4.0247 -2.6109 2.5997 5.8448 11.0988 -0.0610 2.3656 4.0824 5.0068 -8.6174 -0.1845 2.6483 5.8760 6.7472 -14.1709 -12.5868 -3.0880 3.8025 11.6112
1.1113 10.3421 1.2844 2.5183 -0.0276 -1.3438 -0.1472 -3.6661 -1.4845 2.6500 5.0549 1.5584 -1.8425 1.8500 6.0192 12.5487 -4.3934 1.4818 3.6781 4.7450 -16.0825 -3.5362 2.1859 6.6681 9.1438 -22.7244 -23.4734 -3.2147 7.8107 12.6446
-2.3812 9.8127 1.2482 2.5895 -1.4082 -1.9203 -4.5438 -2.2952 -0.3002 1.7760 4.4937 0.2486 1.4006 3.1263 6.5307 11.2013 0.2104 6.2205 6.9567 7.3232 -4.0427 7.8025 10.7444 13.2698 14.5277 4.6992 4.0295 21.3565 27.7534 20.7944
-7.1914 8.8155 1.7880 0.7791 -4.0643 -4.0258 -0.8618 0.4533 1.3743 0.9392 1.8184 -0.3128 4.9337 6.1333 8.7116 10.2919 5.7224 11.7548 13.3122 14.0625 8.5813 18.4180 21.8224 24.7128 28.4980 26.9891 31.3955 44.7064 55.5379 54.8474
-7.2866 5.1206 -0.1738 1.3712 -5.0074 -7.9243 5.4135 2.2733 2.3832 0.4547 -2.1461 -1.9033 6.7406 8.0810 9.3836 10.0911 5.0545 12.8979 16.5871 17.5375 7.6004 17.8475 24.3337 29.4504 38.9853 22.6855 31.1646 41.5637 58.5571 81.8596
-4.1448 -1.1687 -2.7924 3.1782 -3.5730 -10.0558 1.0555 1.6970 3.2357 -0.0218 -5.3548 -2.1657 7.4542 8.2379 5.4510 6.5386 5.5045 12.5556 13.6056 10.0894 10.5424 17.4953 19.1897 19.9460 26.2158 31.9313 31.1222 26.4381 27.4591 50.4990
-3.0349 -4.6691 -2.0345 1.1300 -2.2349 -8.1904 -6.5881 -0.3473 3.4330 -0.7574 -6.9943 0.2913 7.2531 7.4793 0.8047 0.1086 8.3752 12.5839 8.0702 -1.5085 19.4379 20.1566 13.7157 5.6405 1.9706 51.9427 36.6845 15.2864 -7.0050 -9.8655
-3.2217 -3.4837 -1.9159 -3.6148 -2.1092 -4.5870 -7.1900 -4.8505 1.4160 -0.9389 -7.1633 0.7500 3.8400 5.5858 0.2722 -3.5960 1.7141 8.5814 3.4803 -5.5949 5.9311 10.4217 6.9969 -1.8600 -6.0158 20.2666 9.2161 -5.3803 -24.5370 -31.5616
-2.0177 -1.5308 -4.7613 -4.9983 -2.1814 -1.9253 -5.2300 -10.1717 -0.9653 -0.6727 -5.5255 -3.4011 -1.5769 2.6206 1.1521 -3.6826 -13.1058 0.9585 -0.6740 -4.5537 -26.7186 -9.5643 -2.7122 -5.0717 -1.8779 -49.5867 -41.0249 -36.0716 -36.1412 -22.4914
-1.3160 -2.0115 -5.8278 -1.4105 -1.9265 -1.8825 -5.1523 -10.0181 -0.7809 -2.0335 -5.3262 -8.5698 -3.4891 -0.1651 -1.6763 -4.6233 -19.4738 -3.4479 -4.6416 -7.5850 -39.9682 -18.2781 -9.0818 -10.1397 -6.6489 -72.8040 -57.7853 -50.0425 -46.1269 -27.7708
-2.3429 -3.7444 -4.8141 3.2405 -0.8551 -4.2897 -5.8666 -3.4006 0.6437 -4.1136 -9.2298 -11.8715 -0.5326 -1.9034 -6.7146 -8.2691 -14.4858 -3.1663 -7.3251 -14.0865 -27.9708 -12.6762 -9.4226 -14.9687 -17.8236 -42.4620 -38.6425 -41.3965 -45.9662 -42.4656
-2.8081 -4.4629 -5.3139 4.2469 0.9423 -5.6366 -7.5597 1.7240 0.9120 -3.3127 -10.5326 -13.1528 2.7486 -2.2749 -8.2581 -12.5903 -10.2395 -2.4674 -8.2011 -17.0436 -18.5743 -7.9598 -8.7815 -14.9446 -20.0348 -23.6729 -25.4667 -29.8923 -37.2692 -40.3627
-1.9829 -4.4313 -5.9986 0.8679 1.6104 -3.7600 -7.7373 -0.2682 0.6019 -0.8523 -3.9770 -11.7128 2.9743 -1.6384 -5.2162 -14.7242 -10.9523 -2.9468 -7.0723 -14.6159 -19.5267 -8.4604 -8.6143 -10.3671 -13.1801 -31.0226 -27.1611 -23.4475 -26.8232 -24.6700
-0.9845 -4.5950 -5.4760 -2.7143 0.6305 -1.8509 -3.8644 -5.0438 0.4681 -0.3795 1.4280 -7.3940 1.0699 -0.9456 -1.6883 -12.3146 -10.7750 -3.3421 -4.5769 -10.3757 -18.2345 -8.2097 -6.6343 -5.4852 -7.4294 -30.9261 -26.3315 -17.6039 -17.1589 -12.2099
0.0035 -4.4036 -6.3246 -3.4308 -0.1126 -2.7121 -0.9588 -6.1664 -0.0894 -0.3959 -2.3100 -2.9721 -0.6323 -0.1765 -0.0757 -7.1006 -7.4381 -3.0297 -2.4512 -6.8255 -12.3951 -6.1770 -3.8488 -2.9069 -4.5063 -17.6363 -18.7910 -10.8052 -9.2503 -5.5575
0.6578 -3.8413 -7.4451 -2.2636 0.0454 -3.7520 -1.6177 -4.3791 -0.7881 1.1024 -7.7159 -1.6713 -1.0215 0.7874 0.6667 -4.2424 -4.3272 -2.1036 -1.3384 -4.0022 -7.6141 -3.8953 -2.0624 -1.3562 0.1494 -7.5252 -8.7229 -1.9611 -1.8461 1.9355
0.3770 -4.0565 -5.5204 -0.5147 0.1960 -2.2401 -2.0526 -4.1127 -0.8685 1.4715 -7.3147 -3.0697 -0.7005 0.6125 1.1022 -4.3174 -3.2968 -1.3488 -0.8816 -2.4447 -4.7293 -0.9748 -1.2920 -0.4597 3.4221 -2.2306 0.5179 5.9773 3.6355 6.6753
-0.0887 -3.9648 -3.0652 1.0082 0.6088 0.2095 -2.9793 -5.0968 -0.8338 -0.1199 -4.8489 -4.3734 -1.0795 -1.4485 0.4242 -4.1670 -3.5062 -2.3708 -2.0801 -3.2750 -4.7618 0.0598 -2.7830 -2.4545 -1.2582 -1.7996 0.7342 3.6657 0.4431 -1.0908
0.4444 -1.0781 -1.6697 1.9461 1.9337 1.2157 -3.7437 -3.0900 -1.0849 -0.5660 -3.3317 -4.4383 -1.8203 -3.8312 -1.0464 -3.7640 -3.7453 -4.6903 -5.0773 -4.8581 -8.2959 -2.8158 -6.3767 -5.4960 -7.9137 -9.1699 -8.2673 -5.4209 -6.8832 -10.1746
1.8818 2.3870 2.0784 3.4130 2.7947 0.3873 0.5865 2.3067 -0.7990 0.3827 -1.4267 -2.7977 -0.0187 -4.2007 -1.4767 -2.6121 -0.9063 -3.8974 -6.1065 -3.1902 -5.4839 -1.9704 -6.1969 -3.5540 -4.5380 -2.3154 -4.3858 -0.2911 -1.0667 2.8451
2.9177 1.3709 5.3629 4.3596 1.5415 -1.2833 2.1383 5.3455 0.1811 0.8119 -0.2819 1.4142 4.8066 -1.6634 -0.2378 1.7107 6.8740 2.2844 -2.3469 1.7834 11.4551 9.9105 1.5484 3.0299 5.1202 38.1749 26.7682 25.5538 17.9211 26.1805
2.1912 -3.2350 2.0806 2.4086 -0.5217 -2.3791 -7.6783 2.6458 0.9392 1.6193 -0.4777 4.5608 8.1453 2.3110 1.2262 6.0333 13.0076 8.6101 3.5459 5.7890 26.8777 23.1802 10.7810 8.2202 9.8805 72.1728 57.2451 49.0783 31.9638 29.8708
-0.2111 -6.0101 -3.4138 0.9847 -1.0617 -3.4141 -14.0972 0.2628 1.3758 2.7496 -0.7093 0.3220 7.7623 4.7571 1.9386 5.3866 9.5512 9.4478 7.6327 7.8185 19.7989 22.7512 14.0838 11.3591 14.1931 48.1968 49.3633 47.8419 37.3420 29.0205
-2.4117 -5.5629 -4.8701 3.6326 -0.7512 -5.8840 -6.2962 3.5555 1.8285 1.6677 -2.4747 -7.7695 7.1742 4.2744 1.8870 1.7539 1.5437 6.9191 8.2280 8.8451 -0.9573 11.6861 12.3213 13.3494 22.0529 -5.2013 13.4638 26.6824 38.4474 44.5963
-3.2396 -4.3097 -5.6417 4.8817 -1.4988 -7.9508 -0.7435 5.5680 1.9943 -0.1196 -6.0904 -8.7250 7.9422 3.4423 0.9985 -1.1909 0.1868 6.4475 6.1786 6.9992 -9.3876 5.9464 11.1869 11.1699 20.8500 -23.6710 -3.8452 11.5104 30.6059 44.8156
-4.1406 -3.2216 -7.6087 0.4367 -2.7052 -6.7855 -6.3146 -0.6882 1.7883 0.3108 -7.3320 -2.9826 7.2311 4.7900 0.2854 -3.2302 3.9079 8.6463 5.0119 3.5145 -3.3256 9.8975 13.3241 7.2806 9.7681 -11.1021 12.4182 18.4925 20.1871 17.1356
-5.6151 -1.7397 -6.8125 -4.2877 -3.0145 -3.9224 -9.2638 -8.4780 1.1940 -0.0143 -5.0317 -0.3043 4.1756 5.3499 0.3163 -4.1391 2.1586 8.7344 5.0428 1.5804 -2.7042 11.4523 13.5925 5.0725 3.1422 -12.5497 22.3138 23.9937 13.5355 -0.1268
-4.6047 0.1933 -4.3985 -4.3805 -2.3759 -2.7144 -5.3943 -9.8634 0.0128 -3.2471 -3.9194 -1.7455 0.6221 1.8729 -1.1335 -3.5130 -5.9984 3.2099 1.1816 -2.2737 -14.7520 1.5732 4.8351 -2.5475 -2.1494 -30.9017 -7.6542 -5.4693 -8.5454 -6.2318
-0.4622 1.9342 -3.6822 -1.1378 -0.7749 -3.3739 -4.1423 -7.6712 -0.9264 -4.8963 -5.9394 -3.2474 -2.2315 -2.1864 -4.7106 -2.3917 -12.0897 -3.9379 -6.1513 -9.8376 -26.4633 -11.6906 -8.0849 -16.5982 -14.7539 -39.7634 -47.4716 -48.5811 -46.8692 -29.9648
1.6978 2.0293 -2.9154 2.1616 0.6792 -4.1257 -5.8053 -5.8089 -0.9150 -3.1806 -7.1958 -5.2461 -3.0044 -2.8252 -7.0958 -2.9863 -11.2358 -5.6288 -9.4851 -14.3200 -24.9911 -14.1647 -11.5586 -23.0837 -23.7687 -28.6370 -46.5837 -54.1025 -63.2920 -53.5307
-0.9592 -0.8458 -2.2232 1.9635 -0.3071 -4.2093 -5.4139 -3.2656 -0.7218 -2.0032 -6.2278 -6.9111 -0.8470 -1.4694 -6.5542 -7.0652 -5.7308 -1.6362 -6.8448 -12.5018 -12.3206 -5.3571 -3.5615 -17.0538 -20.0113 -5.5755 -12.4093 -24.5132 -44.5296 -48.2245
-4.4364 -5.1490 -4.7444 -2.0282 -2.6635 -3.6639 -5.6997 -1.8063 -0.5926 -1.4617 -5.5281 -6.7481 1.1848 0.6018 -4.5033 -10.8584 -1.9018 2.1400 -2.0726 -7.5659 -3.5716 1.6417 4.6848 -8.5821 -9.9996 6.5272 5.8661 -4.0056 -18.7362 -24.1180
-5.0482 -7.1891 -8.5713 -5.3456 -3.0752 -2.4409 -9.4331 -5.3233 -0.4175 1.2930 -4.0903 -7.4697 -0.6541 3.6606 -1.8941 -8.0731 -4.2691 2.4424 2.9943 -0.8257 -8.8707 -0.3948 6.6838 -2.6972 0.2498 -9.0400 -5.3165 -4.2523 -3.8416 -1.4048
-4.1304 -6.0687 -9.8166 -5.7864 -1.9294 -1.2915 -12.1355 -10.6740 -1.4580 3.5472 -0.6866 -9.2733 -4.7757 4.7039 0.2601 -2.1240 -9.1666 0.6443 6.2071 5.1277 -18.9373 -4.9982 5.5303 1.7461 7.9685 -31.4217 -17.6288 -6.3905 1.8164 9.8217
-4.0340 -4.2378 -9.1907 -5.3264 -1.6662 -1.6994 -10.4709 -11.8039 -3.5066 1.8961 -0.4073 -9.5421 -7.0320 2.0135 0.4556 -1.3013 -10.3417 -1.2852 4.8115 5.7112 -21.2495 -6.1746 4.2312 2.6112 9.5365 -32.8732 -16.9683 -5.9228 -0.3589 7.9229
-4.8852 -3.5021 -7.8921 -4.8521 -2.4616 -3.1887 -7.6167 -10.1266 -4.0998 0.1343 -4.4475 -10.1919 -6.9981 -0.0868 -0.1837 -3.0816 -9.2419 -2.4157 1.5681 3.2331 -19.1302 -6.0250 2.8748 0.2572 6.5959 -23.2288 -13.4473 -7.0077 -3.7677 3.3973
-5.6456 -5.0355 -5.5017 -3.8577 -3.4456 -3.3651 -7.0573 -8.8578 -3.2563 1.6708 -4.7970 -13.4923 -6.6524 0.4272 0.2483 -1.7666 -10.2001 -2.8204 0.5800 2.7528 -19.0842 -5.9645 1.6069 -0.7446 3.5814 -21.0310 -10.1693 -4.1900 0.2873 3.5583
-5.3076 -8.7683 -4.0733 -2.3643 -3.6887 -2.4393 -8.6131 -5.2544 -2.9887 2.9416 -0.3501 -16.4563 -5.8609 0.0173 0.4248 -1.1552 -11.2703 -3.2592 0.3886 2.5915 -17.2099 -4.5775 0.1330 -0.5739 1.4184 -19.9580 -4.1563 1.9512 5.8504 3.1467
-3.7406 -9.7451 -4.6064 -1.0506 -2.6155 -2.9401 -10.1557 0.2826 -2.7858 1.9254 0.0690 -14.8280 -3.1463 -0.9407 -0.4633 -2.3454 -8.3750 -2.9706 -0.1038 1.4652 -9.2564 -2.0248 -0.9176 -1.2133 1.7662 -9.2012 1.3396 2.6903 3.6415 2.1918
-2.4029 -4.5218 -4.1388 -1.8940 -2.0527 -3.9297 -9.4443 -0.0162 -1.7459 1.8280 -3.6814 -7.9768 0.4832 1.3613 0.3820 1.3989 -3.0432 -0.4362 2.2392 4.1875 -0.1759 1.2290 1.5307 1.0560 7.4907 5.6300 6.0776 2.3025 1.3903 7.0280
-2.6091 1.6718 -2.7051 -5.4248 -3.5425 -2.4357 -6.1132 -7.1415 -1.3507 3.1611 -3.1085 -0.5502 1.7870 4.7981 3.7947 8.4913 -0.5942 2.3472 7.1631 11.4590 0.5916 3.2699 6.8391 8.5327 17.4702 6.9063 9.5043 9.6597 11.8404 18.5978
-3.6139 4.2056 -2.7151 -7.6739 -5.0744 -0.2614 -1.6830 -10.8164 -1.7553 3.3819 1.0394 2.3243 0.6609 5.3099 6.3993 10.4075 -0.8135 2.9704 10.1728 16.9529 -4.3629 3.1089 10.1982 16.4246 28.5700 -2.5990 10.5041 21.1167 32.2246 39.4683
-4.0284 4.5776 -2.9001 -5.5157 -5.1826 -1.1308 0.3478 -6.0425 -0.9946 2.9911 1.2343 2.4784 1.3456 4.7126 6.1555 6.9865 4.0288 4.5101 10.3476 17.5339 4.6362 8.2977 12.4113 20.6743 36.6163 18.3556 25.8557 35.9514 49.8941 65.0995
-3.1196 3.3773 -2.0855 -1.7875 -4.7343 -2.6991 -4.3095 -0.7161 0.4186 3.3993 -1.1474 4.1497 4.6794 4.7659 4.2190 3.7882 13.8774 8.2342 8.7803 14.5810 28.2024 20.1532 15.0929 19.6925 33.8108 71.3702 57.6280 51.7008 51.2573 65.1310
-0.5978 2.4111 -0.1289 0.3753 -3.1802 -0.6340 -10.0885 -0.8529 0.3372 3.0805 0.3258 5.4700 5.6049 2.7424 1.6946 3.2482 15.0744 7.4868 3.8173 8.3188 31.3433 20.5707 10.7144 10.5392 17.7087 77.3903 58.7705 41.6371 24.9816 22.8458
1.9108 6.3143 4.4487 2.3717 -0.4209 2.3907 -3.7209 -1.5507 -0.2890 1.3873 3.2994 3.5993 2.9990 -0.8019 -0.5349 5.3089 3.5614 0.7461 -2.3477 1.5801 2.2548 3.1839 -1.1905 -1.5367 2.3119 12.0969 9.1140 -1.0103 -11.8116 -17.3568
1.6507 11.6763 8.1449 4.4925 0.5140 1.7292 10.6395 1.0955 0.6016 0.6204 1.6347 1.5636 2.2006 -0.7338 -0.2863 8.7453 -5.2570 -2.3092 -2.0106 1.6659 -20.8327 -8.9993 -4.8653 -1.9061 4.5459 -36.1243 -31.4006 -26.1928 -14.1546 -4.5299
-0.4987 10.0219 5.6183 3.6924 -1.3596 -0.3417 14.1652 2.5974 1.9510 1.6149 -1.3047 2.8913 4.6133 3.2061 3.0336 10.4797 -1.4099 2.6245 5.0704 8.6841 -13.3270 -2.0164 4.8433 9.6828 18.7015 -18.7305 -14.9454 -2.5802 19.6179 36.1765
-0.9304 3.0340 1.9085 1.0028 -2.8605 0.1053 6.5477 0.4833 1.8659 2.8899 1.5516 5.4654 6.1055 5.7536 5.9213 8.5129 6.8961 7.8172 9.5788 12.5027 5.6944 10.0614 13.0376 15.1304 22.3593 16.1998 28.1138 29.7935 33.7281 41.5079
0.4493 -1.5455 3.8625 1.4428 -2.6737 1.3071 2.6752 -0.1463 0.7748 3.3780 6.4848 4.8608 5.4256 4.3611 5.2399 6.3068 9.5273 7.2856 7.1125 8.4887 14.5556 13.8720 11.5491 7.8036 9.8677 28.2792 47.7407 31.1286 11.1399 7.5008
1.3909 -2.2674 6.7483 4.6856 -2.8349 0.6028 4.1561 4.1177 -0.0446 2.4432 4.6000 1.0896 4.4899 0.8636 2.5042 8.4815 5.6776 3.0014 2.0689 3.7706 8.5935 9.6253 6.4774 0.0764 -1.2842 13.4408 27.7568 11.1772 -4.9970 -15.2054
2.8123 -0.3769 5.7260 5.5901 -3.3050 0.1432 4.8803 8.2381 -0.4121 0.9490 -1.1264 -0.9376 3.0503 -2.1947 0.7380 12.3205 -0.6144 -1.8434 -1.8815 3.7471 -8.9638 -0.6659 0.5906 -1.7276 -0.5207 -24.8470 -18.0251 -13.2050 -3.6105 -6.6298
5.7859 3.7713 4.6666 2.9332 -2.1021 2.2860 6.4273 5.2871 -1.1791 0.8360 -1.3739 1.8404 -0.2023 -3.4748 0.1330 11.9109 -5.6705 -5.6804 -4.4990 4.6234 -25.7303 -12.5624 -7.2654 -3.5313 2.6280 -60.1203 -56.8553 -36.2573 -13.7107 1.7320
7.1052 5.6116 4.3569 -0.1553 -0.6502 3.9253 9.2621 -2.4500 -2.5896 0.8461 1.1549 6.1858 -3.3675 -3.2057 -0.7301 7.3396 -6.8798 -6.5150 -5.0985 2.4185 -26.7182 -16.1305 -11.7732 -6.2980 0.4220 -58.4609 -58.6169 -41.2621 -28.4698 -8.8820
4.8274 1.9628 2.6380 -1.6845 -1.5030 2.0101 9.6678 -5.8087 -3.2290 -0.2470 -0.2790 7.2272 -3.2611 -1.9877 -1.2362 3.5651 -3.8271 -3.6377 -3.3595 0.0612 -13.4837 -9.1189 -8.1022 -4.8201 -1.1882 -27.2099 -29.3823 -21.1272 -20.6542 -16.9278
2.3944 -1.4356 3.5535 -1.8529 -2.7234 0.1701 8.6530 -3.4963 -2.6338 0.7011 -0.8288 5.0000 -1.2907 -0.3212 0.2324 4.5875 -0.0515 -0.3412 -1.3369 1.1388 -2.6176 -1.9445 -1.8006 -0.2998 1.5848 -3.3090 -4.4835 -1.4199 -3.5421 -9.4065
2.2496 -0.9267 5.7064 -0.4895 -1.9850 1.0776 7.0688 -2.2210 -2.5053 3.3472 2.1138 2.2913 -1.6955 -0.0864 1.6928 7.4811 0.1167 -0.3834 -1.2663 2.5590 -3.2166 -1.6318 -0.2519 1.5993 3.6357 -2.9895 -1.8402 -0.9858 -0.8875 -0.8204
2.1490 -1.6930 -0.9060 2.4540 -1.4794 0.1332 1.2864 -2.4532 -2.9252 2.1008 -0.3452 -0.6343 -3.8872 -2.3609 -0.2591 4.2780 -2.5970 -2.6933 -3.1257 0.2354 -8.4565 -4.1206 -2.2767 0.5739 2.4687 -12.2046 -7.3930 -4.6594 -2.2750 2.8667
0.1472 -4.9120 -12.0582 3.4235 -2.7961 -3.8623 -7.0115 -1.2136 -2.4266 -2.2901 -8.3657 -3.3318 -3.9581 -4.1557 -3.4497 -3.2085 -3.3214 -3.2235 -4.4878 -2.4226 -9.1023 -4.2652 -2.7362 0.0967 0.6928 -13.6549 -4.9120 1.2195 4.5501 6.8075
-2.5895 -5.4717 -12.8898 -0.8813 -3.8285 -4.8759 -10.6809 -2.3688 -2.1050 -3.5054 -10.7657 -3.2453 -2.4958 -2.8038 -3.4637 -4.8871 -0.5577 -1.0543 -3.2527 -0.9291 -4.3162 -1.6050 -0.3667 0.7709 -0.1775 -4.2119 4.6243 7.4294 8.1692 6.0158
-4.2097 -3.6431 -5.6081 -5.5214 -3.6061 -2.3936 -7.8789 -6.8292 -3.2626 -0.9613 -6.8825 -1.9944 -2.6378 -0.5006 -1.7430 -1.8938 1.3983 0.7959 -1.0001 1.4611 0.3637 1.3659 2.4830 0.9117 0.5797 6.4710 10.8074 6.9817 4.2267 0.3984
-4.2552 -2.3421 -2.3200 -4.2985 -3.3930 -1.2149 -3.6420 -7.5290 -3.8742 1.7124 -4.2030 -3.6334 -3.4988 0.4539 -1.4492 -1.3367 -0.0242 0.6086 0.2587 1.6458 0.4733 1.7663 4.4716 1.2528 4.3369 7.8290 8.9509 7.0129 5.8724 4.3560
-3.7557 -0.1636 -3.5224 -1.2593 -3.4605 -0.2471 -3.7242 -4.7491 -2.6745 2.9994 -2.6975 -5.2729 -2.8316 1.0480 -1.4585 -1.2766 -1.0223 0.2083 1.8614 2.7416 -1.4439 0.3671 6.2777 3.3141 8.4749 3.0673 6.0679 10.2102 12.1626 15.2716
-4.1389 1.8882 -5.1889 -1.9990 -3.5464 1.7652 -7.6002 -4.9696 -1.4584 2.3174 -1.3353 -3.2855 -1.5227 1.7572 -0.7814 -1.0466 1.4262 1.2431 4.0878 4.8476 -0.1990 0.9619 7.7519 5.1720 7.6055 3.5888 10.2010 11.4875 9.1233 11.4604
-6.3226 -1.0717 -7.8133 -3.3674 -4.4292 -0.6302 -9.1772 -4.9641 -0.8365 0.0987 -3.5039 -2.8955 -0.0879 2.4954 -0.0509 -4.5615 5.3756 4.2830 6.0989 5.4757 5.7856 6.7069 10.5410 8.0570 7.0522 14.7444 25.5205 20.0009 11.2560 5.3741
-9.7955 -7.7697 -10.5738 -2.9396 -6.4642 -7.9824 -8.2214 0.1814 0.1795 -1.1844 -7.4215 -6.3711 2.7968 4.5713 1.5553 -7.2095 9.9389 9.9072 9.7610 7.6664 17.7429 18.2583 18.4538 17.0733 17.1553 40.5396 53.7431 47.7469 42.2113 32.4353
-11.2184 -10.7022 -10.9455 -4.1134 -8.0030 -11.9493 -9.3102 2.9324 0.5119 -0.7879 -8.2941 -6.6570 4.3566 6.2880 2.5383 -4.4749 12.9749 13.3292 11.8930 10.0743 28.2408 25.6864 23.8800 22.8800 25.3310 66.6987 70.1167 63.7302 65.1273 62.2867
-7.4772 -7.5998 -9.5993 -5.9023 -6.7917 -8.8997 -9.7345 -3.6191 -1.3773 -0.9624 -6.9766 -4.4777 -0.7473 3.0407 -0.7998 -3.5899 5.2479 5.9869 4.2372 3.4460 14.0356 11.3763 11.0200 8.3583 10.4421 43.7210 31.0564 23.0853 25.1324 30.8428
-1.2460 -3.9088 -8.4330 -3.6088 -3.1536 -3.8694 -5.5668 -11.7851 -3.7353 -2.4447 -5.1808 -8.3912 -9.6555 -3.4459 -5.6424 -6.4717 -14.2843 -8.4858 -8.3997 -8.4360 -27.5388 -20.0707 -13.4724 -15.7808 -13.0699 -38.2579 -48.7409 -45.1213 -39.7920 -30.8335
1.6985 -3.6053 -6.0837 -0.1039 -0.4654 -1.5771 -1.5919 -12.1026 -3.8076 -2.6407 -2.7556 -14.2764 -12.4350 -5.1684 -5.0999 -2.8708 -26.0598 -13.8215 -10.5125 -8.7557 -53.8383 -34.8274 -21.1895 -19.7675 -14.3072 -94.0598 -85.1238 -61.5055 -46.1101 -38.8001
-0.3593 -5.2727 -1.5365 -1.6144 -0.9874 -2.1915 -2.8130 -7.4166 -1.9344 -0.3251 -1.8569 -11.7822 -6.3360 -0.1385 0.5096 6.4370 -15.1166 -4.4056 -0.5240 3.8161 -32.1946 -15.1096 -4.0148 -1.2059 4.3244 -57.6729 -35.1856 -11.1103 2.5002 4.3230
-4.0983 -5.4508 0.9996 -5.7210 -2.5904 -2.4229 -6.4098 -4.8528 -0.6850 1.6931 -1.9836 -4.8529 0.1501 4.2391 4.7241 7.6280 2.6355 5.7082 7.6338 12.4440 4.9337 10.8288 13.0742 13.4859 17.8291 6.3419 32.7551 35.7904 34.0956 35.6826
-5.0623 -1.1145 -0.8381 -6.0017 -2.1992 0.4992 -6.1458 -4.6010 -1.4856 1.4053 0.9115 -2.5887 -0.5466 2.1586 3.8145 -0.3145 3.0410 3.1929 4.9920 8.2210 5.9459 7.8801 8.0873 8.0445 13.7562 3.5101 26.8636 19.3652 16.3215 29.9849
-2.6043 6.1802 -1.6692 -2.8441 -0.6246 4.0344 0.2502 -3.5300 -3.0708 0.4609 4.0709 -3.0035 -5.0558 -2.8967 -0.3404 -5.8096 -8.4623 -6.1124 -3.3262 -0.7170 -19.9585 -13.9889 -8.9510 -6.7055 -1.1705 -40.3463 -34.5013 -32.1113 -20.0630 3.7744
0.0158 10.0514 2.6897 -0.2867 0.1262 4.9063 8.4498 -1.7769 -3.1382 0.4305 2.8108 -0.1861 -5.4963 -4.4185 -2.6701 -5.2866 -9.4637 -8.1238 -6.8780 -4.0362 -24.8434 -19.4666 -14.4050 -12.0207 -10.6926 -40.8918 -56.5573 -49.3840 -35.1524 -16.7323
1.8305 8.3854 7.9375 1.3060 1.0247 5.1825 11.9970 -0.0250 -1.4349 1.1654 1.5767 5.3098 -1.5658 -2.2681 -1.1199 -2.8249 0.4115 -2.4416 -3.9811 -1.9791 -5.2958 -5.8637 -6.7584 -6.9579 -9.0809 -5.5478 -23.8728 -26.9033 -28.3050 -22.2636
4.1366 5.7327 8.1473 3.3844 2.5883 6.2010 8.8561 4.0495 0.2724 2.0688 3.3952 8.5649 1.4858 -1.1202 -0.0978 -1.1687 4.9386 0.6637 -2.6179 -1.3660 4.7200 1.7931 -2.3161 -4.7018 -7.1124 3.9943 -1.0607 -11.5588 -23.2930 -25.4199
5.7553 6.2444 5.1208 5.4167 2.9400 5.5745 4.7691 10.4167 0.7361 2.1163 3.4705 7.6689 2.0862 -2.7036 -2.4573 -0.9722 1.7776 -1.7153 -6.0803 -3.5089 -0.7875 -2.8237 -5.3204 -8.1899 -8.4367 -12.0227 -7.5026 -14.1632 -22.6730 -26.7505
6.0737 10.7577 5.8234 6.1623 2.7412 4.6071 7.7012 13.2541 0.0368 1.5714 2.4044 7.3886 1.5547 -4.4048 -3.5770 0.3894 -0.3228 -4.3797 -8.4199 -3.2534 -4.5604 -7.0837 -7.3829 -8.9852 -4.6584 -19.9587 -13.7331 -13.2904 -15.1411 -14.5209
6.9552 15.5705 11.0328 5.7646 4.3605 6.2825 15.2024 10.0034 -0.8511 2.4645 4.8026 11.0356 0.2983 -3.8852 -0.3906 5.2766 1.0580 -4.0779 -5.9585 1.0127 -2.6320 -5.1213 -5.0576 -4.5517 3.5602 -15.9430 -9.8221 -5.7527 -4.5375 2.3187
7.8676 14.6397 14.3544 4.9511 6.1046 7.4214 17.4246 5.8268 -0.9120 4.2153 6.9431 13.7917 -0.4937 -1.9821 2.5294 9.9434 4.0481 -1.5505 -2.1770 4.9317 2.2226 1.1541 -0.7828 0.6165 7.7535 -4.4598 -0.6875 2.0387 2.4390 9.0232
7.1553 9.7345 12.8208 4.1185 5.3269 4.9904 13.1839 4.5584 -0.1660 3.9301 4.9749 12.7589 0.8271 -0.8110 2.1296 10.7317 7.7072 1.0927 -0.4625 6.2570 9.2521 7.6142 2.9528 3.8398 8.1322 11.0695 10.8548 10.1064 8.6112 11.6439
6.1231 8.7004 8.4624 4.2131 3.5711 3.0725 6.8053 5.8298 0.8406 1.9663 3.7074 11.5632 3.2672 -0.8840 1.7216 9.3795 9.5044 2.2371 -0.3767 7.1646 11.6466 8.3790 4.2154 4.8724 10.0040 13.7516 15.0804 14.5280 13.8353 18.7990
5.4561 11.1958 3.8357 5.5511 2.4154 3.9943 -0.2391 8.6685 1.4375 0.5791 5.2645 10.3682 4.3315 -1.7349 2.4629 7.0673 7.8227 1.8809 -1.2574 7.4791 7.2160 4.1277 3.0484 3.5310 12.0614 3.9007 9.3246 11.3328 12.9367 23.0522
4.3786 11.4909 3.9719 6.1828 0.9247 3.8454 -1.3132 10.1719 0.7879 -0.0606 5.5500 7.8125 3.7322 -2.9464 1.6586 5.0874 5.7137 0.8796 -3.0085 5.1694 5.9183 2.8349 1.6750 0.8573 10.4610 6.3061 5.5486 5.1324 5.3899 15.7828
4.5123 10.1870 10.4415 4.7978 -0.2531 1.8370 7.6327 8.2602 -0.3180 0.1588 4.8608 8.2083 3.3328 -2.8907 1.0536 8.6473 6.2023 0.4524 -2.9657 4.0864 11.0015 6.7498 2.6846 0.9474 9.4777 19.6477 10.1949 5.2130 1.5815 7.3565
5.4293 9.1711 13.8069 2.4491 -0.1320 0.7787 12.9299 5.2242 0.0403 1.6519 5.5934 12.2614 4.3267 0.0310 4.3110 16.1288 9.6902 2.9161 1.7878 9.3019 18.6746 13.3208 9.2036 7.9494 16.5593 27.9280 27.1425 22.4237 16.9175 16.3945
3.2060 7.1227 8.7126 0.5980 -0.4143 -0.3027 5.2373 3.7786 1.4659 3.0446 5.1562 14.1590 6.8671 4.1165 8.3035 16.7746 16.5993 8.9106 8.2622 16.2196 33.3177 23.4000 20.1091 17.9125 26.8748 50.0992 59.5930 52.3352 43.9943 37.0042
0.6231 5.8582 4.5439 0.7223 -1.3798 -2.2526 -1.7167 5.0834 1.9863 3.4910 3.0598 14.3594 10.1676 6.0456 8.9027 11.7103 23.7397 14.0810 10.8796 18.2029 49.8700 32.3284 26.3660 21.6902 29.3955 88.6731 82.3457 66.4277 52.9205 47.3582
3.8233 7.5535 7.9129 2.7909 -1.1003 -1.9492 2.7792 7.9529 1.1592 3.5617 3.6778 16.9557 11.1863 5.1569 8.7502 15.1818 23.6861 13.7424 10.0962 18.4541 47.0079 29.7360 22.9881 19.4898 26.7652 90.2505 65.2758 51.5874 39.7734 47.8269
8.5133 10.3428 13.3399 4.4429 -0.0638 1.0901 10.3450 9.7099 -0.3030 2.6914 7.1050 17.5242 7.7798 2.3386 9.0622 25.0577 14.8354 8.1420 7.8392 18.5361 22.2880 15.7095 14.1645 15.3737 23.9200 35.6549 22.3351 22.9936 21.2844 39.8694
8.0707 13.2625 15.0923 4.8571 0.2750 3.5289 12.8953 11.6392 -1.5081 0.9481 9.4789 11.7929 3.2055 -1.7001 6.1040 23.9811 3.8368 0.6433 2.0084 12.5020 -3.7776 -0.7643 3.0360 6.2369 15.7190 -24.5964 -16.6833 -9.2834 -3.2115 11.4637
5.6999 14.3522 12.1620 4.0321 0.1239 3.6019 10.9900 13.8590 -1.4455 0.7959 10.1094 6.7931 2.6134 -3.0680 2.7267 14.3461 -0.2570 -2.2570 -2.0232 7.0256 -13.7281 -8.2162 -2.2190 0.6420 12.9664 -44.6476 -29.3826 -19.4594 -10.4770 -2.5825
4.1675 9.7300 6.4534 1.0969 -0.6802 1.6477 6.2997 11.1103 -0.2060 2.6364 9.2828 9.7782 6.8870 1.8752 5.2587 12.4094 9.2705 5.5930 5.6587 14.7071 4.1693 5.7952 11.2305 14.7232 31.3561 -9.4328 12.6935 28.6326 36.2720 41.4349
1.6644 4.3549 3.3552 -0.8347 -1.7344 -0.4255 3.5224 5.8608 0.8387 3.5298 6.1447 17.4195 11.9020 7.1871 8.2406 14.1651 25.7676 16.6986 15.5749 22.6655 39.4611 31.1279 30.2734 30.9058 44.2322 56.5357 81.1757 85.4392 81.3996 80.8888
1.7159 7.3650 5.9199 1.2173 -0.9370 0.1650 7.3639 5.9217 0.6836 2.6042 2.6576 22.1941 11.7246 4.5449 3.4335 8.6492 29.4321 14.8975 9.4388 12.0239 48.5335 33.1493 24.4988 18.2360 20.6814 76.7426 78.7918 57.2893 40.3613 36.4681
6.9324 15.4037 9.9399 2.7214 1.4685 2.9319 12.1151 7.5649 -0.4237 1.7136 1.8325 20.4763 5.2025 -2.3838 -3.4703 4.2458 14.2922 0.9471 -6.2856 -4.3097 14.7970 4.9681 -1.8624 -9.4176 -11.7100 17.3726 -7.7887 -28.1174 -39.7459 -35.0403
10.3919 19.4681 11.1026 1.2782 2.6817 4.7176 10.7382 5.5564 -1.1947 1.2214 3.3272 14.4173 -0.6827 -4.9398 -3.7467 8.3715 -1.3839 -8.1787 -11.9107 -5.9830 -18.3105 -18.6004 -16.4606 -18.2779 -15.1977 -46.2557 -70.5822 -64.2225 -59.4912 -43.5264
8.0362 19.2031 10.3788 1.5260 2.0792 4.7317 7.1038 5.5350 -0.6911 0.4819 5.0453 9.2347 -0.3142 -3.3288 -0.0002 12.2247 -3.4130 -6.5259 -6.5209 1.5252 -18.0703 -16.9744 -11.2671 -9.5654 -0.9220 -46.5655 -55.3547 -37.6885 -27.6787 -8.9861
5.5106 16.4763 9.5875 3.2500 1.0929 3.9110 5.9124 8.8592 0.0768 -0.5426 4.8399 7.4639 2.2862 -2.5410 1.5427 12.1854 1.6118 -3.1523 -1.6529 5.5525 -4.6191 -5.7088 -3.2534 -2.6492 6.6626 -15.0634 -20.4201 -10.3649 -6.0721 9.2933
6.2054 10.2624 8.7232 2.0756 0.2481 2.1955 6.3946 8.2037 -0.3162 -2.4206 1.6964 8.1128 2.0479 -3.4298 0.1420 13.4863 4.4203 -2.9856 -1.0568 5.5318 0.1811 -0.0709 -0.8121 -1.6917 6.1170 -0.1191 -10.5564 -4.4114 -3.6400 5.4704
6.5543 3.7851 7.0475 -0.4530 -0.5696 -0.0991 7.2029 3.3010 -1.2014 -4.4450 -1.3275 9.0738 0.7011 -3.7560 -1.5394 13.8624 5.6869 -2.7219 -1.5344 4.5858 2.2681 1.4426 -0.0845 -1.7513 4.8148 2.5447 -8.6332 -2.7346 -1.4072 2.0101
4.0862 1.3438 3.2393 -1.9286 -1.4438 -1.5979 2.9215 0.4650 -1.3730 -3.9968 -0.5848 7.1677 0.5161 -2.6296 -1.2480 9.3041 7.0128 -0.9724 -1.1099 4.2451 7.0344 2.4865 1.7400 -0.1037 6.2569 7.9227 0.8581 3.3758 4.4110 8.0536
0.8589 0.6309 -1.7260 -3.8970 -2.3985 -1.8704 -8.3937 0.7634 -1.3515 -1.3749 1.4434 2.4014 0.8442 -1.4714 0.5164 4.1672 6.7554 0.3079 -0.6264 4.8098 9.0704 3.8580 3.8035 2.9909 8.9586 11.2300 9.6769 10.6568 9.8754 14.5532
-0.2378 0.1749 -3.0814 -4.7032 -2.6476 -1.7220 -12.6343 1.6749 -1.5774 0.6309 0.4939 0.9115 2.2470 -1.2063 1.3699 3.0332 5.8884 0.8943 -0.7152 5.0641 7.9953 6.3810 4.9813 5.6160 9.8198 9.0312 12.2964 13.9722 12.6458 15.0229
1.0750 4.0874 0.7721 -1.0184 -1.8556 -1.5376 -2.2271 3.3938 -1.0863 1.7006 -1.3965 5.3453 4.8468 -0.7733 0.9918 5.4209 7.0032 1.8482 -0.0306 5.8277 9.0814 9.1936 5.9553 7.5022 11.2670 9.4682 14.1980 13.7850 13.5294 17.9676
2.2304 10.9001 5.2389 3.0819 -1.6214 -1.1293 6.3335 6.0211 0.1723 2.2015 -0.8477 9.6655 5.7133 0.1947 0.7513 8.5002 9.8046 3.1125 1.3986 8.0705 15.0485 11.3048 7.4985 8.7996 14.7313 24.0001 22.7112 17.8355 15.1654 22.3841
1.2613 12.6441 7.2647 1.7458 -2.5329 -0.3287 2.8322 6.5764 0.9120 1.3639 0.2704 9.6373 4.0846 0.8601 1.1020 9.3481 12.4841 4.3402 2.0923 9.9296 23.8562 13.6269 8.6838 9.0859 16.2540 50.8987 37.4752 27.9267 18.5368 19.8549
-0.4183 8.4524 7.3182 -1.9001 -2.4705 1.1690 -1.3299 4.3653 0.8030 0.4166 1.1322 7.1361 2.9972 1.2110 2.8586 9.3190 12.6142 4.8125 3.7214 12.6609 26.6652 14.6474 9.4954 11.8988 19.8770 61.8923 46.3911 36.6449 28.9911 29.8835
-0.9341 4.1047 4.7259 -2.3379 -1.0263 2.6426 0.1198 3.3025 0.2302 0.8117 3.9633 3.5797 2.9874 0.9550 5.8232 10.8938 8.0440 3.0616 6.8403 17.4655 15.9299 10.8835 10.1717 17.9260 29.4485 35.5651 38.8005 38.7439 47.2638 59.8686
-0.9312 2.1888 0.9631 -1.0065 -0.6311 2.4379 1.0423 4.6334 -0.8644 0.8188 5.7450 0.3319 1.7030 -0.9470 5.6520 9.8729 1.7961 -0.4359 5.6907 16.5955 0.8842 4.2116 7.3699 16.2393 28.3156 0.4171 21.7839 29.0155 46.5618 57.5808
-0.4876 3.3450 1.1970 -0.4441 -1.2048 1.6115 0.8940 4.6925 -2.0539 -0.6670 3.0720 0.8263 -0.5314 -3.5210 1.0323 4.8348 -0.8260 -3.1287 -1.0082 7.4173 -4.3768 -0.6776 -0.1963 2.8356 8.4651 -8.3655 7.6980 5.2655 9.4588 5.5973
2.2306 7.3383 5.4320 -0.2136 -0.3980 2.9505 4.4713 2.0087 -2.5623 -1.5738 1.9928 5.3350 -1.6784 -4.2159 -0.5887 5.4898 -0.5982 -3.9335 -3.8625 3.9038 -4.7763 -4.1408 -5.1416 -4.5180 -1.8787 -8.2935 -4.6371 -12.2849 -18.6054 -18.0185
5.8139 9.9764 7.7680 -0.2554 0.9930 5.0203 9.9002 0.8902 -2.3906 -0.9846 6.1342 9.3271 -1.4184 -3.0841 3.9460 13.8655 -0.2634 -3.3272 0.6406 11.6265 -8.8974 -6.4582 -1.5106 4.6862 12.2152 -20.7823 -14.1809 -1.9766 3.6052 17.8766
5.9386 9.0313 6.6287 1.2682 1.1066 4.5708 10.9350 6.0274 -1.5912 -0.5451 7.9551 9.3552 0.7305 -3.0568 5.9427 15.0359 2.1034 -1.7103 2.5721 14.1001 -6.9121 -3.1242 4.2419 12.3244 19.6847 -19.6762 -7.1767 16.2108 29.0187 31.9340
3.3214 7.9668 5.6959 5.6739 1.3910 3.4216 6.6301 13.5997 -0.2036 -0.7015 5.0231 7.5223 4.9541 -4.9433 1.2681 3.3596 7.1042 -0.1708 -2.9105 3.5442 7.2732 4.9132 3.5995 3.9748 1.9929 10.0214 13.0973 10.1131 5.0804 -10.6767
2.5066 8.2831 5.2110 7.5508 2.6475 3.8183 1.1709 14.0583 0.3475 -0.8341 3.2187 7.2992 7.2694 -6.2627 -3.2953 -6.2682 9.3203 -0.5000 -8.2888 -5.7560 16.7144 7.2956 -1.8744 -8.2333 -15.6163 30.3391 18.3120 -12.0054 -33.8285 -45.4480
3.0338 8.0826 1.7845 3.9539 2.6886 2.9663 -2.7451 7.9538 -1.1227 -1.6686 1.2116 6.1540 3.5171 -6.4283 -5.0570 -5.3701 3.6510 -3.7642 -9.7121 -6.3086 5.9444 -2.0241 -7.7555 -12.6867 -16.3657 8.8391 -5.0573 -28.6725 -43.5148 -43.2248
1.6842 8.0076 -2.7911 1.0557 1.7672 0.6824 -4.3542 5.2325 -2.8236 -2.7961 -3.8796 0.8815 -2.8063 -7.1589 -6.8653 -3.0012 -6.4968 -8.4730 -10.7066 -6.2238 -14.4176 -14.3569 -12.6708 -13.6619 -13.9280 -30.6354 -34.0049 -38.9078 -38.0913 -35.0396
-0.0565 8.6512 -2.9807 1.1163 2.4338 1.1104 -2.5757 5.9870 -2.6630 -2.0087 -6.4698 -2.6599 -4.6477 -7.4159 -7.4962 -4.7703 -10.8323 -10.3579 -11.0169 -8.0908 -21.4694 -16.3647 -13.2742 -13.7036 -15.8243 -42.5706 -39.4237 -39.2465 -33.4985 -29.5041
0.3480 7.1699 -0.2086 -1.1280 3.5615 3.0464 1.2857 1.6450 -2.1651 -0.0650 -4.2568 0.8507 -2.6182 -5.3501 -5.6434 -5.7968 -6.6268 -7.9384 -8.4992 -7.7805 -12.5959 -9.4687 -8.7380 -11.0756 -14.8691 -26.4990 -25.5613 -26.1168 -23.7293 -19.5266
0.8746 4.2373 0.4516 -5.1897 2.8276 3.2365 2.2546 -6.0218 -3.5910 0.4741 -1.0058 4.0866 -3.0067 -3.4397 -3.6606 -4.2066 -3.8563 -5.8903 -6.3155 -6.7984 -6.9634 -7.3486 -6.1946 -9.5503 -11.0451 -19.2878 -18.8043 -16.8150 -16.4226 -15.2064
-0.4510 5.1379 0.0078 -4.9022 2.0520 4.3971 -2.2439 -7.2094 -5.4347 0.1793 2.2340 0.2920 -5.8320 -4.5782 -2.4422 -3.7646 -7.2077 -7.3041 -7.2453 -7.4492 -11.0406 -12.0357 -8.8840 -11.3967 -9.7272 -24.9343 -22.1535 -19.6687 -19.5272 -17.7967
-1.2999 8.5562 0.0046 -1.1192 2.9769 6.6759 -6.4620 -1.9415 -4.9238 -0.1851 3.0496 -3.2408 -6.0288 -6.5507 -1.9768 -5.6236 -8.4974 -8.5623 -8.4155 -7.1623 -11.8082 -12.3545 -10.0881 -12.0062 -8.8544 -19.3429 -18.1938 -17.9925 -19.1829 -14.2220
-0.1027 7.0306 -1.3129 -0.0011 3.5990 4.9177 -3.4032 0.7735 -2.7876 -1.6589 -1.4126 -0.3974 -4.0844 -5.9387 -3.2290 -6.8160 -4.9655 -6.9273 -7.2144 -5.2213 -6.8380 -7.0969 -6.8687 -9.6923 -5.4765 -9.1160 -9.0761 -8.3767 -8.8325 -5.9889
0.5746 0.9668 -2.0936 -0.7810 2.8958 0.6749 2.3116 -0.9848 -1.6449 -2.9483 -6.1085 0.7649 -3.7614 -3.8717 -5.2646 -5.7180 -4.2236 -5.2338 -5.8874 -4.7441 -5.5213 -5.7058 -5.3613 -9.2703 -4.7890 -10.6717 -7.5433 -6.5304 -3.8540 -7.1944
-0.9041 -2.0032 -1.0577 0.5732 2.0594 -0.6689 0.9767 -1.7546 -1.8735 -2.3714 -6.6058 -4.6959 -4.4932 -3.3664 -6.3302 -4.9052 -7.6066 -5.7100 -6.9594 -6.3742 -7.0376 -8.9165 -8.0221 -12.4510 -10.2011 -12.3607 -8.2166 -11.7381 -10.0765 -16.6671
-2.4334 -0.1381 -2.6881 0.3976 1.0593 -0.5455 -5.2759 -1.8588 -2.4377 -1.2869 -5.9405 -7.6811 -4.9798 -3.9415 -6.2596 -6.5948 -9.0617 -6.6746 -8.5793 -6.9721 -6.9464 -10.3663 -9.6003 -13.8001 -13.0450 -8.9209 -6.2991 -11.3549 -12.6859 -16.7157
-2.4233 1.5708 -7.6053 -2.9313 0.0687 -1.4206 -8.7118 -2.7468 -2.7646 -0.5569 -5.8881 -4.2891 -5.2575 -3.6997 -5.6302 -9.6573 -6.9700 -6.2013 -8.2083 -5.7816 -6.6798 -8.3438 -7.3866 -10.5247 -6.9997 -9.2632 -6.6132 -6.6755 -5.8014 -4.6340
-2.3207 -0.0919 -11.3485 -0.7229 0.3832 -2.2112 -11.0789 2.3236 -1.8943 -0.2457 -6.6402 -3.0106 -2.4244 -3.5358 -6.0299 -14.2743 -2.0224 -3.4554 -7.0899 -6.4323 -0.6861 -1.4889 -3.3552 -7.5027 -2.4402 2.5559 4.6488 0.8286 -0.2833 -0.1763
-3.3804 -2.9277 -12.4787 6.9259 1.3869 -2.9609 -14.6046 11.6898 0.1885 -1.1968 -9.3053 -5.2973 3.6684 -3.8721 -7.7567 -19.4558 5.2714 1.0591 -6.1958 -8.4703 14.6231 9.7310 1.5696 -6.4141 -5.9569 34.1974 35.9401 16.8271 2.4316 -6.5952
-3.8482 -2.8999 -10.7190 6.6380 1.8400 -2.8060 -12.4937 9.8267 0.7960 -1.6562 -9.4413 -4.2879 5.0668 -2.5606 -6.9624 -17.1703 7.4256 3.2041 -3.4322 -4.5484 19.0418 12.2337 5.0596 -1.6472 -2.2878 37.7175 45.6624 27.1617 12.4970 3.4048
-1.8045 -0.4026 -6.8420 -1.3479 2.4955 0.4751 -4.4853 -2.9151 -1.4526 0.4195 -3.0753 -2.7734 -1.9229 -0.8256 -2.6152 -5.4769 -3.0187 -1.2327 -0.2295 5.4388 -5.0014 -4.0203 1.6459 5.5653 15.6591 -17.9615 0.1179 9.9496 25.4322 36.1162
1.1262 1.0631 -4.6260 -2.6416 3.6216 4.3316 -1.4741 -7.1678 -3.2512 2.0535 2.6729 -6.7895 -8.8676 -2.5467 -1.0413 2.3573 -17.6108 -8.7392 -2.1543 8.9772 -34.7865 -23.1914 -7.7412 4.3741 23.1418 -75.1712 -54.1612 -20.8078 21.0983 47.4177
1.9742 0.6156 -3.8546 2.4980 3.5628 4.0981 -4.9545 -0.1392 -1.6884 0.3631 0.1746 -9.3080 -8.2674 -5.5876 -5.6160 -2.2787 -19.7361 -10.7012 -8.5478 -0.1291 -34.1315 -22.5823 -13.1835 -7.1879 2.2640 -65.5028 -52.3347 -32.0025 -7.0550 5.1461
0.2810 -1.5191 -2.1254 2.2618 1.6353 0.3425 -6.3136 2.7855 0.6227 -2.3053 -6.8223 -4.0217 -3.3360 -5.1615 -10.9008 -11.6650 -8.4133 -5.8065 -12.4360 -12.0088 -6.5888 -6.5410 -10.5446 -18.1646 -26.1097 -9.5798 -8.1072 -23.9815 -40.2520 -54.7695
-2.2689 -4.8985 -3.3485 -2.5000 -0.5004 -2.4245 -5.6727 -1.1517 0.1197 -3.0035 -10.6350 -0.0262 -0.4230 -2.9840 -11.3585 -16.8237 0.1086 -1.8789 -11.0611 -15.5646 9.9782 1.7811 -6.8834 -19.9038 -34.0041 19.3462 13.6700 -18.2501 -48.8397 -71.4063
-4.0889 -6.9633 -9.9292 -4.4127 -1.6075 -2.1809 -7.3228 -3.4095 -1.8315 -1.8799 -9.6807 -3.8625 -0.6959 -2.2324 -7.4133 -16.6487 -2.8051 -2.3918 -6.2844 -8.8910 -0.5062 -3.4258 -4.5095 -10.2947 -17.6771 -1.3530 -3.9889 -9.5204 -14.9193 -26.7737
-4.4471 -7.2136 -14.7726 -5.0071 -2.5467 -1.3225 -8.0689 -3.6719 -2.1924 -0.5630 -7.7784 -7.1440 -1.6730 -1.4540 -3.4259 -14.0922 -7.0750 -2.3917 -1.0789 1.0035 -13.6247 -6.6167 0.4639 3.5813 4.9116 -26.8918 -20.4478 8.6806 30.4509 31.6270
-2.6375 -7.8472 -12.3231 -6.1888 -3.3352 -1.1935 -7.6060 -4.4137 -1.0440 -0.2589 -7.3317 -3.6671 -1.6227 -0.3136 -3.4917 -12.2531 -4.0992 -0.5188 -0.6780 2.1882 -10.6253 -2.2018 2.2639 3.5366 6.9347 -24.8056 -18.3028 5.3451 22.0330 29.4777
1.1665 -8.6538 -7.3615 -3.9805 -2.3416 0.2469 -10.9172 -2.6668 0.2398 -0.8102 -6.6068 0.5538 -0.6413 -1.1227 -6.7776 -11.2995 -0.2304 -0.8835 -6.2657 -7.0826 -4.6813 -1.3317 -4.8516 -13.1182 -15.7348 -15.1131 -19.5463 -27.7864 -36.0313 -33.4651
3.4886 -8.6332 -6.5601 0.6905 -0.6269 1.9237 -14.1736 1.0539 1.0915 -1.2018 -5.4525 -0.5040 0.0116 -3.0969 -9.3724 -11.8391 -1.9665 -3.2291 -11.0928 -14.7065 -7.2187 -6.4790 -11.1676 -23.5991 -33.5005 -17.3046 -26.7983 -44.8535 -64.2735 -72.1328
0.8801 -8.9134 -9.8613 1.0152 -1.4335 -0.1044 -11.3282 0.9581 0.8622 -0.7853 -6.9568 -4.2861 -0.8071 -3.2003 -10.2844 -17.1030 -4.6619 -3.6649 -10.9334 -15.1103 -8.3647 -7.7033 -9.0515 -18.3963 -29.5535 -16.7436 -21.7608 -28.8359 -42.0209 -52.3407
-3.9986 -10.4346 -13.3746 -3.0444 -3.9720 -4.2786 -8.2325 -3.2157 -0.4563 0.1500 -10.5326 -6.5729 -2.1799 -1.4434 -10.0960 -24.0776 -3.5826 -1.9017 -8.5655 -13.9289 -2.4436 -2.5671 -4.7450 -11.7857 -19.5327 -4.9616 -7.3553 -12.6535 -20.8589 -25.5179
-6.0134 -12.5499 -14.8997 -4.3866 -4.6123 -6.1628 -10.1597 -5.1513 -1.6244 0.1940 -12.2073 -8.3489 -2.2536 -0.7409 -8.4637 -24.8560 -2.6972 -0.5938 -6.6841 -12.7145 0.7424 1.4777 -2.7605 -9.4802 -14.1635 -0.1432 -0.8384 -8.6932 -15.2909 -16.2641
-5.4231 -12.9325 -14.2653 -2.1101 -3.7501 -6.0285 -11.6569 -3.3635 -1.9909 -1.1207 -11.5551 -10.0805 -1.4557 -1.6120 -6.0626 -19.7809 -4.4966 -0.2324 -5.1094 -9.0055 -1.5818 1.8342 -0.4053 -5.6677 -8.9872 -6.0386 -1.7586 -2.6356 -4.7510 -5.8244
-5.0335 -9.1912 -11.5280 -1.6329 -3.7080 -5.2318 -9.7859 -2.9006 -1.4753 -1.6242 -10.2537 -7.2589 -0.9244 -0.9934 -3.7015 -14.6572 -3.0594 1.4682 -2.9973 -4.6272 1.3110 3.7035 3.2527 -1.2317 -4.6069 -0.8165 3.9201 6.1655 4.4326 2.3361
-3.6686 -3.7876 -8.0696 -1.8444 -3.0089 -2.9933 -8.2818 -3.4195 0.3865 -0.4717 -7.9128 0.1441 0.3444 1.3246 -1.4582 -10.7177 3.2853 4.4436 -0.8974 -2.5190 9.3097 7.9560 5.5059 0.0633 -3.9198 13.6461 13.3602 7.8237 0.7640 -2.4547
-0.5783 -2.3456 -6.9035 1.3242 -0.7198 -1.0555 -7.8223 -0.1784 2.4984 -0.3221 -5.4368 4.0865 2.6004 1.7808 -0.1973 -8.0400 6.9997 5.6794 0.0474 -2.0361 10.0297 9.6415 5.2514 0.7364 -1.7053 13.4489 12.2610 4.8847 -1.4217 -3.9640
-0.3784 -4.3457 -8.0379 3.5679 -0.2338 -2.3800 -7.5679 3.4645 2.6470 -2.0990 -5.9571 1.9221 4.2196 0.7704 0.0026 -8.7506 7.8829 6.2701 1.2160 -1.0092 10.0013 11.8464 6.6087 4.5549 5.0446 15.7526 15.4579 13.0286 9.7631 7.0604
-4.7259 -4.1455 -7.7542 1.1285 -2.4272 -5.0598 -9.7686 2.1846 1.5050 -3.2064 -8.1471 0.9934 5.7502 1.6578 0.2630 -11.5388 14.1167 9.8199 3.8105 0.7139 26.6981 21.6992 12.2221 8.3133 7.0015 53.7586 45.0620 33.0826 19.3545 8.1804
-7.2093 -0.8695 -4.7035 -0.6460 -3.2294 -4.7475 -12.5554 -0.0010 1.2986 -2.2176 -6.7537 4.3336 7.8872 3.1853 0.6754 -11.3392 21.3703 12.9615 5.0377 2.0118 44.5071 29.9417 15.3397 6.3003 -1.3679 90.1727 67.8001 38.0454 11.9088 -9.3976
-4.4047 2.7706 -1.5355 1.6103 -0.9849 -1.3148 -9.3899 1.4074 1.5319 -0.3593 -2.3742 5.5724 7.5511 2.3404 1.0930 -6.8915 16.8380 9.8910 3.0853 3.1819 32.0040 21.0632 10.1402 1.4474 -7.1603 62.3266 39.4337 15.7902 0.8604 -14.5360
-1.3537 6.2996 -0.8316 4.2174 1.4634 1.6332 -2.1333 3.8132 0.7189 0.5317 -0.6756 2.2297 3.8461 -0.0978 1.3240 -3.2282 4.2040 3.3440 0.0258 3.7006 -0.0488 2.3137 2.5318 -0.4200 -2.2063 -5.8435 -9.1325 -7.1774 1.6574 3.0712
-1.4963 8.5321 -2.4059 4.2090 2.0946 2.5121 0.3592 3.9201 -0.7964 -0.2362 -1.2691 -0.0993 1.0777 -2.1785 0.7410 -3.8886 -2.1683 -0.3280 -2.0224 1.9787 -15.1815 -6.3063 -0.0466 -0.7566 2.0218 -41.8077 -22.0602 -9.0652 5.5562 11.0993
-2.9216 6.8861 -4.2861 1.5801 1.5359 2.6884 -1.9788 1.1937 -1.8814 -0.9644 0.4349 0.3459 1.0913 -2.3978 1.1323 -5.9928 -0.4727 0.2372 -0.5868 1.8620 -8.3720 -1.8072 3.3017 1.9644 4.8772 -31.3698 -4.1442 7.2590 15.5749 14.3307
-4.3649 2.4121 -5.9798 -1.6094 0.5642 2.0825 -3.2814 -2.0623 -1.4986 0.1449 2.3405 -0.8318 1.6823 0.2939 3.8920 -6.6995 2.0944 3.3766 5.0388 7.6211 0.8950 4.9952 10.0543 12.3097 18.6773 -7.8843 10.9775 30.9134 45.6716 48.1144
-4.8543 -0.0285 -7.2168 -1.6960 -0.2885 0.0303 -3.4261 -1.4088 0.2030 1.9063 0.0496 -3.7267 1.8726 3.0053 4.6691 -6.5983 1.5857 5.2422 7.5781 11.5500 1.0838 5.3738 11.7468 18.3770 29.0505 0.7504 6.7155 34.0097 60.7750 74.8132
-2.4009 3.2879 -4.7136 1.3748 0.3023 -0.8511 -2.3132 2.7797 1.1012 2.5614 -3.3981 -3.7017 1.4673 1.6704 0.7288 -5.1039 -3.3620 1.3136 0.8967 4.6660 -10.6899 -3.7349 0.8577 5.4050 12.5621 -21.2050 -21.3369 -6.2183 16.7330 31.7039
0.7785 9.9364 1.3856 3.0547 2.2558 1.2035 1.4833 4.2878 0.0948 2.2624 -3.6827 -0.9787 -0.0784 -2.0643 -3.2397 -3.4914 -9.5960 -5.6087 -8.3619 -6.8091 -25.8510 -14.9689 -13.3444 -14.8499 -15.9481 -56.3733 -51.8582 -54.9339 -48.3731 -43.4419
-0.1900 13.6586 3.5005 1.2118 2.8733 3.5566 1.5636 1.1707 -1.3375 1.1670 -2.4833 -0.4766 -1.8100 -4.5453 -4.8576 -7.6778 -11.1330 -8.6093 -12.2493 -13.1323 -27.7702 -17.0004 -17.1871 -22.9129 -29.5376 -61.9139 -51.6430 -61.5685 -68.8475 -73.7549
-4.4626 13.6175 -0.7104 -1.8115 1.2933 4.1320 -5.2642 -2.7208 -1.8599 -0.5654 -2.5336 -2.8751 -2.6929 -5.3895 -6.4546 -15.9672 -9.0300 -7.5849 -11.9635 -14.1503 -18.5572 -11.7895 -13.3594 -20.0035 -29.0093 -38.9428 -30.5316 -36.2946 -47.8635 -57.7641
-6.8204 13.7564 -3.2422 -2.8862 0.3028 3.1900 -8.6626 -4.6274 -1.0729 -0.9250 -4.0943 -4.2543 -2.7372 -4.1108 -6.7189 -17.4960 -7.0269 -5.4811 -9.5003 -12.0488 -13.5184 -7.4873 -9.4708 -14.5173 -23.4270 -24.7844 -19.9871 -17.3082 -23.6831 -32.8836
-5.6143 13.7595 -1.5947 -0.2979 1.3599 0.8999 -4.9918 -2.4331 0.9780 1.1149 -6.6396 -3.1393 -1.3700 -0.8246 -4.6338 -11.9945 -3.2291 -2.0372 -5.7884 -8.8438 -11.2949 -3.1764 -5.1363 -8.5278 -15.0157 -19.9438 -15.0534 -10.5818 -11.4711 -16.1780
-3.7517 11.3173 -2.1970 3.1632 2.5302 -1.2214 -3.7181 3.0593 2.4129 2.4367 -8.7749 -1.0701 0.7799 0.6198 -4.2465 -10.5295 1.9684 1.2268 -4.4665 -8.2002 -4.1937 2.4228 -1.0209 -4.7488 -9.5401 -5.7819 -1.1743 -5.6886 -9.5248 -11.8445
-3.8396 8.5578 -4.4752 2.0930 2.2884 -0.9568 -4.9469 4.3351 1.5416 0.6245 -8.5833 0.4854 0.9990 -0.9228 -6.0991 -14.1317 3.0703 1.4142 -5.2330 -8.6258 1.3584 4.3993 -0.3031 -4.2270 -8.6531 5.8201 7.9176 -1.3054 -8.4192 -12.0598
-5.1096 6.9457 -3.2350 -1.7063 1.5363 0.4635 -2.5394 0.3224 0.6046 -1.1727 -6.2778 0.0692 -0.1196 -1.0636 -6.5304 -15.3250 0.7144 0.8274 -3.6871 -6.2356 0.8596 2.9328 -0.5312 -3.0550 -5.8345 3.9750 4.7544 2.3652 0.0382 -3.9980
-5.3458 3.8993 -2.2379 -1.6912 1.4813 0.4638 -2.1639 0.3105 1.8661 0.0225 -4.1627 -1.8311 1.1262 1.4881 -5.8157 -14.4179 1.2075 2.9729 -0.5281 -3.7742 2.4633 3.9932 2.1173 -0.8553 -1.8331 4.6854 5.9235 5.7329 7.1654 4.0177
-4.0649 0.1101 -4.1131 0.8334 1.8403 0.0775 -7.1186 4.0768 2.8830 1.8390 -2.4361 -1.7921 3.7003 2.9150 -5.2741 -13.1105 4.4097 5.5910 0.6378 -3.5916 8.1371 7.2682 5.5517 -0.6420 -2.2172 13.6494 13.2035 5.3566 3.5348 -2.4577
-2.3364 -0.9546 -2.7297 1.1629 1.5758 0.7299 -8.2368 4.0514 2.0061 1.7507 -0.5216 1.1633 4.5534 2.3431 -3.5056 -8.1530 6.5962 6.3761 0.8476 -1.7571 12.3934 9.6310 7.6369 -0.3076 -3.5096 20.4786 16.1459 4.0536 -1.5570 -12.6041
-1.8864 -1.4005 0.6109 0.9051 0.2484 -0.0141 -4.3607 3.7936 2.3364 0.8315 -1.9102 4.0498 6.5118 3.2058 -1.1840 -3.5468 10.8000 8.9667 3.3585 2.4364 19.9682 15.6458 12.0379 4.5793 0.2442 30.4146 29.2100 15.6204 5.7533 -5.5943
-3.8144 -3.3254 -1.4596 1.2090 -1.4648 -2.5890 -3.5522 6.4802 4.7128 0.6928 -6.6728 5.0859 10.6757 6.1898 -0.0658 -5.5676 17.7094 14.0032 7.5989 5.3062 31.7386 25.3051 19.1962 12.3816 7.9438 43.6944 57.3292 40.6381 26.6902 18.9644
-5.5324 -2.3751 -4.7404 -0.3185 -2.3957 -2.5016 -3.6418 5.0317 5.3379 1.4507 -7.2059 5.2703 10.8566 7.5507 0.9347 -7.5077 17.9663 14.5214 9.3720 6.6895 30.7314 25.2758 21.1117 16.7916 15.6022 37.2323 60.8101 52.0834 46.4307 41.5236
-3.1127 1.5897 -2.5990 -1.5865 -2.3875 0.6933 1.1664 0.0854 3.3430 2.1135 -2.7239 6.4730 6.4999 5.4490 1.9227 -2.9460 10.4281 8.9903 6.5194 6.7612 15.2995 13.1676 14.7064 14.0941 18.3572 16.9068 24.5358 32.3671 43.8964 43.1143
2.0250 2.8971 0.8840 0.5369 -2.2176 2.3433 5.9954 -0.1781 1.8452 1.9336 -0.6064 9.5613 4.8667 2.5143 1.0118 1.4484 7.3542 4.7852 1.8315 3.7766 7.8802 5.3955 7.5609 6.5768 12.6838 16.9065 -5.2230 4.7163 19.8034 25.0255
5.3467 2.0968 2.5020 2.7935 -1.7512 2.3546 5.8094 2.5987 1.8516 1.5688 -0.6339 12.4135 6.5063 1.1795 -0.6230 2.3613 10.6581 4.4241 -0.8861 1.3168 11.1262 6.8319 4.2862 0.3164 5.2556 26.2975 -3.0667 -3.7318 0.6326 9.6021
6.6018 2.9074 4.6170 2.5661 -0.2278 3.5866 4.7775 3.3600 2.0337 1.8454 1.2778 12.0818 6.3577 1.1870 -0.0128 5.7580 9.7300 3.4722 -0.7857 4.2870 5.9747 4.7702 1.6906 -1.1055 6.5738 8.7884 -1.1910 -2.7518 -0.6335 13.4826
7.1926 4.4859 6.0933 2.3922 1.6192 4.9757 5.7748 4.0600 1.7947 3.0391 2.9522 9.1629 4.9423 1.6511 2.1208 10.0899 4.2532 1.0120 0.4990 7.9401 -5.7854 -2.5713 -1.2489 -0.4277 11.8526 -20.2802 -15.2590 -8.6150 2.2378 23.4418
5.1046 5.2762 5.2938 2.2515 1.9853 5.3126 3.7748 5.1521 1.1796 4.9162 3.6389 7.1144 5.3209 2.1633 2.6706 7.0703 4.5911 0.9049 1.0760 5.2700 -2.1547 -1.1323 -0.6989 -1.4828 7.4850 -14.5992 -9.0910 -7.0508 -0.4106 14.2856
0.6319 4.2734 4.2117 -0.0576 0.4804 4.9748 -2.8214 3.8971 0.7389 5.2214 4.4605 7.7985 6.8535 2.3563 1.0860 -1.2302 12.1874 4.4428 0.6252 0.1023 19.0713 12.1145 4.1192 -2.7405 -2.6562 29.2110 30.7136 12.3732 -2.2183 -6.2262
-1.2577 1.4600 2.3017 -1.6991 -1.3028 2.5915 -5.4494 2.9327 1.2028 2.2441 1.2550 8.2776 7.4673 1.9251 -0.8970 -5.6287 15.7386 7.0413 0.0255 -0.6536 29.1824 18.6580 7.0543 -1.1195 -2.0792 56.4967 48.2149 23.7106 3.7079 -1.8946
0.0744 0.4942 -1.0246 -0.0702 -1.6253 -0.6956 0.0752 5.0903 1.9561 -0.6214 -5.2357 4.7394 6.4495 1.2126 -2.3595 -4.8892 8.6361 4.5457 -0.5419 0.6200 10.2786 7.0127 3.2364 0.6777 6.4958 26.0208 9.2860 7.9544 12.0498 23.4208
1.0934 1.9773 -1.1695 1.0933 -0.5287 -0.8055 5.4221 5.7981 1.9946 0.3275 -6.2397 1.0915 4.6673 1.1278 -3.0529 -2.5102 0.2996 0.2597 -1.4913 -0.8789 -11.7202 -6.3562 -2.7102 -2.4690 3.5094 -19.0233 -31.3532 -14.7848 6.6057 18.6234
2.2404 1.3256 2.3801 -0.0582 0.0558 0.9913 5.0276 2.7176 1.3945 2.4492 -1.9532 3.6066 3.0674 1.2900 -2.6516 1.0951 0.1718 -0.9349 -2.8289 -3.2825 -9.9028 -5.6743 -4.6323 -9.0835 -12.1966 -20.2428 -29.0981 -25.0690 -16.4343 -24.1235
3.7269 -0.3131 3.8767 0.3352 -1.1241 1.1097 3.2588 1.6135 0.3484 2.0885 -0.2322 6.5604 1.2494 0.0443 -1.9901 3.2003 1.4529 -0.8605 -4.4363 -3.7671 -2.7971 -1.8528 -5.0170 -13.2618 -21.8292 -8.3307 -19.4890 -30.2255 -37.3223 -51.5480
1.8655 2.1115 2.9313 2.5062 -2.5110 1.3138 3.3257 4.2072 -0.8350 0.8806 -1.1503 1.3569 -0.4534 -1.8455 -2.2945 -0.5777 -3.5634 -2.3497 -5.5349 -3.2030 -12.5310 -7.0076 -7.3591 -13.5729 -18.4364 -30.5787 -30.9571 -36.0504 -40.3199 -39.8960
-2.3261 5.4569 2.1162 1.8985 -2.4898 2.9811 3.7912 4.2633 -1.2947 0.8681 -1.4452 -4.6721 -0.4476 -1.5706 -2.7609 -6.7814 -7.6208 -2.7212 -4.2010 -1.7127 -21.6089 -11.6421 -7.3674 -11.1338 -10.5877 -51.6952 -35.6570 -30.6980 -27.0764 -16.2984
-3.4813 3.6745 -0.0155 -1.5023 -2.3917 3.5385 4.1229 0.2345 -1.0270 0.8440 -1.5822 -1.4110 0.7668 0.5366 -1.8016 -8.2869 -3.9818 -0.0145 -0.4547 1.3619 -13.1151 -6.4244 -1.9130 -5.4728 -3.2364 -33.4545 -18.3766 -10.8770 -5.6479 -0.2651
-1.7240 -0.9250 -1.6209 -3.4454 -3.1903 3.0360 4.8122 -2.5022 -0.8756 0.4198 -0.8501 4.3441 1.2718 1.4077 -0.5479 -5.7207 0.5991 2.0182 1.6251 2.7587 -1.9724 0.2322 2.5071 -1.3794 0.2501 -8.5506 -3.8391 1.0651 4.8575 3.1928
-0.7583 -2.4624 0.8634 -2.8541 -2.7929 3.5075 4.5375 -1.8530 -0.8567 0.1191 0.6599 4.0343 1.5794 0.3013 -1.3432 -4.8074 0.9447 0.8879 -0.4930 -0.6765 0.3920 0.8610 0.5435 -5.7414 -5.3793 -4.2634 -3.7356 -7.7432 -8.5447 -10.0194
-0.6160 -0.3699 2.6949 -1.1153 -0.2392 3.9213 1.8136 0.1896 -0.1516 -0.3184 0.2953 2.9083 3.4729 -0.3337 -2.4127 -6.0065 2.4226 0.5423 -2.2362 -3.7573 2.7508 1.7259 -1.4194 -11.0284 -11.6942 -1.0220 -0.3899 -11.5562 -18.2312 -20.5935
0.2074 1.5765 -0.3471 1.0011 2.0459 3.4591 -0.8949 2.0211 1.2624 0.9385 -0.2320 4.8038 5.6191 1.5912 0.0120 -5.3583 6.1790 3.4665 1.0350 0.1123 6.1819 5.4011 2.7393 -5.1211 -4.2476 6.0179 9.8280 6.3151 2.3788 -3.9732
1.1544 0.8933 -2.4116 1.6938 2.3363 3.8737 0.3292 2.1347 1.8207 4.4652 1.5756 4.7249 4.5562 3.9716 3.5953 -3.3267 5.4615 4.6709 4.4469 5.0632 2.7334 4.1874 5.9852 2.5764 6.7621 1.0307 7.3942 14.7361 20.0971 17.2265
1.4830 -0.6393 0.3224 -0.1192 1.3833 5.0605 3.2574 1.1528 0.6631 5.2419 1.9524 3.3286 1.0413 2.7986 2.6470 -3.1740 1.6994 1.2343 1.5525 1.6445 -1.7158 -0.6043 1.5390 -3.3192 0.1169 -4.0961 -5.1293 -3.9024 0.8399 5.2652
0.9818 0.2311 2.3533 -1.6373 0.0970 4.7842 2.9050 1.8738 -0.3686 1.6043 -1.3209 5.6065 -0.0413 -0.3804 -1.3967 -3.5965 3.1090 -1.1171 -2.9274 -4.9845 2.3762 1.3247 -3.1034 -12.5784 -14.2994 7.0307 -0.5708 -13.8640 -20.4232 -18.3075
-0.6283 3.6944 1.0846 -0.3654 -0.8206 3.3423 1.9528 3.9161 0.1039 -0.9677 -3.8545 8.2095 2.0492 -0.8686 -2.7012 -3.0132 7.1673 0.9246 -2.2808 -5.2656 7.4495 6.7305 -1.4005 -10.1134 -12.9837 14.8030 16.8206 0.8360 -9.2816 -11.5087
-1.7561 7.6645 1.8436 1.9185 -0.2595 3.5541 5.4618 4.9354 0.6396 -0.6249 -2.0337 6.5558 2.8544 0.0687 -1.1739 -3.6176 5.2350 1.9412 -0.7313 -2.7951 2.8062 3.3621 -0.6816 -5.9696 -4.0770 1.8292 11.8723 4.2663 2.7200 5.0766
-0.4027 9.2869 5.7736 2.6930 1.3847 5.8399 9.5035 4.4236 0.4856 -0.0659 2.8051 3.8218 0.9439 -0.5025 0.4029 -4.4149 0.0309 -0.3571 -1.8856 -2.5544 -5.4080 -4.7375 -4.0823 -8.7929 -3.9724 -12.2560 -11.7186 -9.5325 -4.2966 0.0153
1.4973 4.8439 6.2649 2.3513 1.6782 6.2501 8.5295 3.3195 0.9662 0.9974 5.4729 2.4168 -0.0121 0.1401 2.4719 -2.4850 0.4188 -0.0662 -0.1128 0.0631 -4.6513 -3.0217 -1.7405 -5.5028 -0.8758 -8.3005 -10.3173 -0.6727 4.1787 3.2648
1.2274 -3.1051 2.4793 2.9475 0.2413 2.6633 5.1229 4.7913 2.1784 2.7336 2.2578 0.1889 2.2070 2.7547 4.0939 -0.8045 5.2851 4.0687 4.0680 4.4552 3.9150 6.3604 6.1895 4.7468 10.5996 4.9905 17.4933 25.7240 28.0694 29.8875
0.3255 -4.0617 1.5506 4.8914 0.1134 0.3146 1.8181 9.2333 2.6946 2.6583 -1.5286 -1.9167 5.0553 2.4273 2.5264 -2.2223 7.2480 5.1485 2.3610 2.7817 9.1613 9.0644 6.3289 4.0030 9.9324 17.3672 26.6129 24.2920 24.1922 34.9646
0.7924 3.1349 3.5900 5.9025 2.1554 3.2456 -2.6995 9.4920 2.1799 1.1680 0.7430 -0.4106 5.5244 -0.9824 -0.0063 -3.7039 5.8125 1.7926 -3.1673 -2.6462 8.4622 4.4903 -0.9591 -5.7607 -4.2512 27.5659 9.6016 2.2920 1.3183 9.0575
1.7098 6.1305 2.4483 4.1829 3.2085 5.8135 -4.6064 3.0265 1.4537 0.7032 4.2990 3.5604 3.9000 -2.1922 -0.3470 -3.9004 4.3269 -0.3967 -4.5515 -4.0240 6.5223 1.6464 -3.9383 -8.6291 -11.3303 24.2259 -1.8958 -5.5643 -5.8906 -10.9241
2.3688 0.8824 -0.5584 0.7674 1.8698 3.2410 -0.2613 -2.7182 0.8125 0.8431 2.8152 5.2552 1.1184 -0.8519 -0.5453 -4.1967 1.3697 -1.0834 -3.4771 -2.7491 1.6934 -0.4085 -3.4409 -7.6523 -9.4148 -0.2061 -6.0970 -9.8126 -10.8377 -19.5460
2.7024 -2.9899 -1.1778 -2.2562 0.3066 0.3734 3.5441 -4.7001 -0.2421 0.4447 0.2948 2.7288 -2.8452 -0.4080 -1.2658 -2.6956 -4.0538 -3.3337 -3.2033 -0.9954 -8.4780 -5.6579 -4.9632 -8.9625 -4.5701 -26.3419 -20.0785 -22.0434 -19.0231 -15.7119
2.2107 -0.0589 -0.3537 -3.2029 0.2238 1.3895 2.2129 -5.5062 -1.5146 0.4128 1.4972 -0.6817 -5.6618 -0.8273 0.5415 1.7219 -7.2681 -4.9962 -1.1997 4.1833 -16.6135 -9.7379 -5.1250 -5.4647 6.9876 -33.3269 -33.7817 -21.6528 -4.6429 16.4096
2.2488 5.3429 1.8648 -1.4842 1.1674 3.3002 1.9468 -3.2926 -1.4251 1.4567 4.2643 0.3709 -4.1084 -0.4105 3.7202 5.4232 -4.8225 -3.4362 1.1300 9.2836 -14.0224 -8.4257 -3.1277 0.1860 15.1739 -21.8364 -30.7664 -10.9218 12.9746 40.0944
4.3940 8.1062 5.8643 1.3432 1.8883 3.2666 4.8679 2.7850 0.5762 2.5211 5.3175 6.5144 0.1925 0.4831 4.1307 5.8677 0.6892 -0.6304 -0.4814 6.9096 -3.2248 -3.6511 -2.9948 -3.7398 4.0863 -2.7117 -17.6549 -12.5474 -3.8469 7.0712
6.4069 8.0626 7.7829 3.4277 1.9923 2.4763 6.2319 7.3456 2.4513 2.3114 4.5150 11.8170 2.8225 0.7236 2.2398 3.8658 4.6017 0.9377 -3.6490 -0.3043 4.7363 0.7261 -3.5333 -13.0161 -14.1757 7.8232 -8.7002 -20.9416 -32.5426 -46.5255
5.5027 8.0014 6.4050 4.3367 2.0369 2.8562 6.5875 6.8859 2.5309 1.2578 3.9851 11.5456 2.7360 0.2353 1.0433 0.4332 4.5311 0.8548 -3.9452 -4.0393 3.9846 1.8042 -2.4597 -15.2173 -17.8206 0.0460 -7.1419 -19.7051 -35.1292 -58.9612
3.1244 8.8796 5.1984 3.6929 1.8277 4.5688 7.9723 3.6734 1.5183 1.3283 5.2367 8.3050 1.4365 0.0496 1.2102 -2.0738 1.5584 0.0383 -1.9958 -2.3851 -0.6031 -0.1955 -1.2449 -9.7768 -8.3955 -11.6965 -8.4977 -10.9149 -17.8490 -34.7238
1.9720 10.2457 5.4953 2.2225 0.8383 5.9484 7.5960 2.0334 0.5707 3.3362 7.0989 6.5849 -0.1358 0.8542 2.2040 -0.5511 -0.9541 -0.0051 -0.1422 1.1736 -2.4101 -1.6389 -0.2549 -3.5435 1.0722 -10.1049 -8.1030 -2.5941 -2.8750 -9.6744
1.3799 11.7498 6.2685 2.3594 -0.0270 5.2289 5.4357 4.3696 0.2588 5.5326 7.1168 5.2969 -0.6728 1.8849 2.9168 2.0712 -0.5736 0.9868 0.8325 3.0818 -0.1271 -0.1052 1.3953 -0.8972 4.7060 0.3660 -3.4391 1.1032 1.0292 1.2999
-0.3218 10.7170 5.9321 3.5154 -0.1438 2.7927 4.7028 8.2065 0.7215 5.6327 4.3812 2.1030 1.1860 2.2366 1.8473 -0.5856 1.8471 1.9776 0.9419 1.6214 3.7351 2.4914 3.0117 -2.0816 1.9778 6.8367 2.7004 -0.3733 -3.6745 -1.2823
