Fp1 Fp2 F7 F3 Fz F4 F8 FC5 FC1 FC2 FC6 T7 C3 Cz C4 T8 CP5 CP1 CP2 CP6 P7 P3 Pz P4 P8 PO9 O1 Oz O2 PO10
4.1965 4.4273 3.6301 -0.0666 0.2823 1.0169 4.1458 1.0051 0.1998 1.4716 2.3961 2.1474 1.7988 0.2651 3.0729 3.2266 0.4574 0.1797 -1.1585 0.1501 1.6653 1.5652 -1.2756 -1.8610 -3.0407 2.1671 -0.2894 3.6275 -5.7862 -3.1486
5.4862 6.0409 4.4118 0.3339 1.4046 3.1261 5.9360 1.0589 0.1754 2.0486 3.8158 3.0997 1.1722 0.1870 3.4579 5.2577 0.4447 -0.2707 -0.7182 2.6032 2.1844 1.0255 -0.8447 -1.3160 -1.9962 4.2783 -0.3934 -0.3745 -4.7399 -1.6538
9.3577 5.3963 4.5722 0.9933 2.0463 4.0147 4.4031 1.5300 -0.2880 2.0858 4.9426 1.5619 0.7387 -0.5212 2.8147 3.1804 -0.4174 -1.4406 -1.4078 1.8538 -0.0279 -0.9699 -2.5025 -2.3058 -2.8153 -0.9936 -3.3934 -6.9221 -8.2056 -2.2111
8.0568 3.1541 3.2543 1.0787 1.5685 3.1700 1.4429 1.1134 -0.4320 1.0630 3.6508 -0.6370 0.7488 -1.2629 1.5835 -1.1185 -1.6971 -2.1127 -2.4179 -1.1805 -2.7350 -2.4829 -4.2957 -4.1881 -5.0820 -5.8385 -6.1232 -7.6605 -10.9303 -5.3627
-1.0758 1.7861 0.8556 0.2304 0.5662 0.7096 0.5134 -0.8032 -0.2330 -0.0908 0.3732 -1.2580 0.3632 -1.5412 0.7445 -2.7492 -2.6110 -2.0317 -2.7779 -2.5764 -3.0539 -2.4980 -4.6851 -5.0459 -5.2033 -3.5393 -5.1726 -4.1344 -7.5541 -5.5091
-3.0861 2.9610 0.2569 -0.2245 0.4258 -1.3677 1.4760 -2.3144 -0.3592 -0.5506 -1.2090 -1.7752 -0.4769 -1.4390 0.3838 -0.4856 -3.2821 -2.2681 -2.9754 -1.6630 -3.7550 -3.2149 -4.8318 -5.0852 -3.0388 -4.2701 -5.7266 -3.9100 -3.5073 -2.1716
4.8106 3.9697 1.5634 0.0891 0.6578 -1.8236 1.1433 -2.4013 -0.7091 -0.8928 -0.2427 -3.4205 -1.1163 -1.5737 0.0463 0.6732 -3.9693 -2.7276 -3.5366 -1.1804 -6.1891 -5.1295 -5.3196 -5.5098 -2.3730 -11.0821 -9.0557 -5.9542 -4.6383 -0.6607
5.7701 1.5262 1.9568 0.4915 -0.0482 -1.6887 -1.0059 -1.7709 -0.3483 -1.2892 0.8036 -3.7491 -0.8835 -1.6723 -0.0534 -2.6714 -3.5588 -1.8132 -3.5195 -2.4246 -6.1327 -4.8454 -4.6435 -5.8390 -4.8913 -11.0341 -7.8033 -4.7767 -7.3843 -3.6062
-1.3178 -0.8500 1.7595 1.1480 -0.9045 -1.7499 -1.2364 -0.5509 0.4579 -1.3142 1.0178 -1.6225 0.2261 -1.2010 0.2008 -5.2183 -1.9383 -0.0131 -2.6690 -3.7287 -3.5304 -2.1798 -2.7814 -5.3838 -7.2135 -4.1063 -3.3537 -2.1018 -7.6562 -7.4496
-1.5615 1.8045 3.2425 2.0078 -0.5961 -1.6365 2.2664 1.2161 0.5405 -1.3451 1.2598 0.6225 1.4166 -0.8215 0.2060 -1.6171 -0.7758 0.6326 -2.2091 -3.3553 -3.0675 -0.9761 -1.4415 -4.9065 -6.0662 -3.7191 -4.3688 -2.2186 -7.5023 -7.9954
6.0577 6.7867 5.6190 2.3584 0.4672 -0.6746 6.1027 2.5706 0.3409 -1.3947 1.9303 1.8075 2.1077 -0.8418 -0.0827 3.8122 -0.3120 0.4324 -2.3727 -2.2044 -3.9945 -1.5953 -1.2486 -5.2716 -3.6135 -8.2466 -8.8422 -4.7482 -8.9726 -6.4899
11.9611 8.5361 6.4931 2.1940 1.3615 1.1524 6.7082 2.8161 0.8062 -0.7855 2.6542 2.4139 2.3124 -0.5374 -0.1374 4.6944 0.2765 0.6095 -2.2431 -2.4211 -2.7201 -1.5595 -2.0401 -6.0984 -3.4144 -6.4711 -9.1990 -7.3746 -10.2133 -5.9063
13.6728 7.0066 5.6721 1.7940 1.7469 2.3751 4.9155 2.1945 1.0734 -0.0486 2.8730 2.0724 2.1126 -0.1237 -0.0591 2.2926 0.4107 0.4245 -1.8674 -3.9961 -0.9335 -1.2498 -3.5280 -6.5752 -5.0677 -0.6287 -6.3679 -8.0418 -9.8787 -6.0958
13.6182 5.8494 4.9459 1.2726 1.7430 2.1313 3.8275 1.0841 0.4520 -0.0353 2.7711 0.6969 1.5501 -0.3753 -0.0991 0.9399 -0.5386 -0.8292 -2.2098 -5.0480 -1.8052 -2.3611 -4.8680 -7.0799 -6.8061 0.6172 -5.3511 -6.6712 -10.1041 -6.7950
12.0069 6.3394 4.8148 0.9460 1.8294 1.8671 4.0473 -0.5758 -0.1651 -0.0976 2.6949 -0.9485 0.6707 -0.9099 0.0415 0.6692 -1.9801 -2.1960 -3.3985 -4.7859 -4.4075 -4.3158 -5.6572 -8.4971 -8.3925 -2.1700 -6.6358 -6.7859 -12.6115 -8.8824
6.2209 6.6617 3.7808 0.5680 2.0194 2.4360 4.0365 -2.3428 -0.5567 0.4738 2.2763 -1.9263 -0.2766 -1.1339 0.7216 -0.6341 -3.1159 -2.7178 -4.1671 -3.8165 -5.7593 -5.2911 -6.0414 -9.7855 -9.1566 -3.7051 -7.4584 -9.0110 -15.1533 -10.9073
-2.2847 6.3373 2.3392 -0.1654 1.8899 3.2525 4.3299 -2.5716 -1.2312 1.2980 2.3504 -0.9403 -0.7236 -1.2855 2.1154 -2.0834 -3.1804 -2.4734 -3.4683 -2.6455 -4.6869 -4.6482 -5.7448 -8.9117 -7.5725 -3.2503 -6.6531 -8.6677 -14.1999 -9.6477
-2.9713 7.2019 3.3540 -0.2704 1.8886 4.8744 6.0488 -0.5821 -1.4998 2.0348 4.6398 1.6389 -0.3374 -1.4676 3.9651 -1.2402 -1.7910 -1.8978 -1.9498 -1.3698 -2.5483 -3.2249 -4.6306 -6.1676 -3.8881 -2.6254 -5.3914 -4.9113 -9.5638 -4.7954
7.6572 9.2188 6.4361 0.7235 2.4923 7.3281 7.6132 1.7764 -0.6176 2.6359 7.8612 3.4281 0.7076 -1.1398 5.3421 1.7677 0.1443 -0.9436 -0.5333 0.5276 -0.4374 -1.5379 -2.8367 -3.3360 -0.0520 -0.5868 -3.3573 -1.3546 -4.4268 0.4392
15.1610 10.3545 7.8965 1.2930 2.7930 8.1416 8.3710 2.8474 0.5657 2.7379 8.8632 3.6704 1.6718 -0.2459 5.5622 5.3868 0.8997 0.3204 0.8338 3.3849 1.2254 0.0945 -0.7194 -0.9759 2.8926 2.7806 -0.1371 1.0080 -1.4119 3.6256
10.4376 9.8261 6.5282 0.4801 2.0868 6.1601 9.3616 3.0428 1.0075 2.0633 7.2146 2.9422 1.4716 0.2622 4.8913 8.3169 -0.4691 0.7491 1.7119 5.2657 0.2819 -0.0881 0.3593 0.6194 4.5497 1.2432 0.4422 1.5297 -1.1927 4.1705
2.9279 7.2599 3.9009 -0.5373 1.1483 3.4582 8.0777 2.7894 0.8733 1.0310 4.8347 1.1399 0.3249 0.0464 4.0806 7.1996 -2.5979 -0.1016 1.4325 3.9999 -3.3464 -2.4197 -0.2491 0.7740 3.9009 -5.7317 -3.2096 -1.0390 -3.5159 1.8906
-0.0127 2.8625 1.4295 -0.5665 0.9053 2.1065 2.5139 1.9509 0.6305 0.5345 3.4921 -0.4791 -0.1753 0.0207 3.8027 0.1244 -3.1205 -0.7556 0.9219 1.2682 -5.1809 -3.8736 -1.0886 0.1674 1.2218 -8.0597 -6.0800 -3.5822 -6.1225 -1.3679
-1.0042 0.0096 0.3779 0.0719 1.4820 2.4741 -1.6828 1.3217 0.2509 0.9738 3.7957 -0.2568 0.1646 0.3260 4.0309 -5.9547 -2.3353 -0.5708 1.1553 0.3314 -3.8603 -3.1441 -1.0049 0.2165 -0.6452 -3.4733 -5.4936 -2.3916 -5.0903 -2.1632
0.0144 1.3612 1.1363 0.4341 2.3055 3.7176 0.5286 1.7079 -0.1834 1.5532 4.3666 0.5533 0.1832 0.1393 3.8679 -2.8458 -2.1416 -0.4943 1.4936 1.4552 -2.6256 -2.0580 0.0206 1.1540 0.8662 -0.9498 -3.2963 0.9429 0.1836 1.2552
4.5675 4.3095 2.3836 0.1255 2.6118 4.2142 4.7461 2.5318 -0.2087 1.3324 3.7540 0.6136 0.1529 -0.3234 2.8482 5.0390 -1.9624 -0.2789 1.5371 2.8066 -2.0042 -0.9951 1.7327 2.1544 4.5369 -2.5491 -0.7712 2.5973 4.3849 7.5356
8.0864 5.4194 3.1904 -0.3720 2.3664 3.1777 5.6612 3.0401 0.3890 0.7682 3.0683 1.1760 1.1398 -0.2507 1.9643 7.8008 -0.4834 1.1826 1.9979 3.2220 -0.5928 0.9082 3.1083 2.3938 6.3181 -2.4691 0.5114 1.5423 2.8753 11.3708
6.6859 4.9321 3.8019 -0.2053 2.0571 1.7450 4.8650 3.4736 1.2581 0.7976 3.4978 2.7423 2.7697 0.3062 2.3445 5.5964 1.2191 3.3149 2.9162 2.6858 1.1797 3.2178 3.6346 1.9602 4.7417 1.3017 0.9252 0.5816 -1.0904 7.9101
3.9127 4.5099 4.3307 0.8080 1.8009 1.1334 4.9047 4.1815 1.8396 1.0183 4.0572 3.6328 3.8288 0.8204 3.3651 4.3046 1.5824 4.2019 3.0522 1.9937 2.3172 4.6213 3.8263 1.3836 2.6276 5.0652 2.8669 2.0445 -1.8665 1.2298
3.9658 4.6501 4.6975 1.8619 1.7087 1.2434 4.8448 4.5155 1.7465 0.6193 4.2013 2.7319 3.4585 0.6576 3.3125 3.7316 0.1682 2.6296 1.4045 1.6095 1.2190 3.2773 2.5748 0.1178 1.4759 3.6089 2.9967 3.5725 -0.8766 -1.1971
5.2291 5.0138 4.8033 2.2788 2.1313 2.1412 4.0478 3.7131 0.9353 0.0302 4.4462 0.8716 1.6329 -0.6596 1.7512 1.0914 -2.5164 -0.6045 -1.5022 0.5146 -2.3978 -1.1441 -1.4303 -2.6858 -0.9054 -1.7674 -1.8507 2.1433 -2.9566 -1.5139
4.7513 5.6686 4.6144 2.3396 2.8844 4.2005 4.2708 2.4884 0.0336 -0.0387 4.2886 -0.1813 -0.1669 -2.3211 0.0992 -1.1207 -4.4707 -3.1324 -4.0713 -1.9832 -4.9159 -5.1992 -5.7832 -6.0173 -4.5752 -3.6097 -5.5801 -1.4804 -7.1124 -4.7608
3.3107 6.7096 4.4585 2.4336 3.3081 5.6555 6.0160 2.0360 0.0330 0.2071 3.2040 0.0755 -0.1758 -2.6269 -0.1822 0.2353 -4.0684 -3.5053 -5.0295 -4.1962 -4.5094 -5.6871 -6.9712 -7.6384 -5.8634 -2.4987 -4.5277 -4.7279 -8.4660 -6.7708
3.4639 6.6561 4.0346 2.2794 3.0416 3.9591 5.8514 2.0834 0.6723 0.2624 1.9163 -0.0088 1.0399 -1.4817 0.6828 1.7966 -2.7062 -2.6653 -4.3344 -4.3296 -4.1125 -4.0227 -5.3750 -7.0744 -4.2947 -5.1269 -4.0554 -5.4475 -6.6777 -4.3486
5.2849 4.4697 2.6367 1.6320 2.1965 0.6703 1.7216 1.7205 0.4955 -0.0653 1.0307 -1.1569 1.3564 -0.8464 1.2163 -0.8315 -2.4981 -2.1850 -3.1860 -3.2936 -4.5985 -3.2249 -4.1056 -6.4125 -3.9108 -8.1451 -6.1366 -3.9606 -5.7989 -3.4204
5.0575 2.3092 1.2680 1.0014 1.2606 -0.1968 -1.6863 0.9551 -0.3362 -0.5165 0.6297 -1.3201 0.6083 -1.5740 0.7707 -4.7206 -2.8801 -2.1833 -2.8020 -2.9588 -3.3422 -3.3779 -4.2753 -6.9111 -5.9324 -3.9354 -6.0787 -2.8270 -6.8848 -5.8540
0.9694 2.1336 1.3627 1.0707 0.7943 1.0798 -0.0215 0.2735 -0.0695 -0.4216 0.7418 0.0332 0.4526 -2.0010 0.2793 -4.3690 -2.5597 -1.8929 -2.8558 -3.3070 -0.7100 -2.7962 -4.2574 -6.7823 -6.9470 3.6104 -2.3004 -1.8620 -6.7787 -5.7098
-1.7472 2.8291 1.9912 1.6325 0.7958 1.1731 3.2324 -0.0507 1.0049 0.3465 0.9660 -0.0388 0.8094 -1.1259 0.5734 -0.6172 -2.5055 -1.4372 -2.2209 -3.1269 -0.6279 -1.9964 -3.4160 -4.8995 -5.2260 4.3863 0.1893 -0.0861 -5.0199 -2.1499
0.6771 3.1999 1.6085 1.5574 0.7237 0.2990 3.6437 0.0109 0.7946 0.9104 0.8955 -2.2859 0.0861 -0.2548 1.2471 1.8727 -3.6419 -1.5874 -1.0984 -2.1457 -3.8944 -2.7831 -2.8771 -3.4510 -3.3140 -2.8577 -2.7662 -0.7631 -5.5502 -0.6269
3.0745 2.7755 0.2260 0.0182 0.2779 0.8870 2.0662 -0.2287 -0.7400 0.7788 0.5152 -3.9496 -1.4736 -0.3020 1.6544 1.5714 -4.6155 -2.1741 -0.6418 -1.2603 -6.4901 -4.1421 -2.5026 -3.7796 -3.5084 -9.8908 -7.1434 -4.3580 -8.5074 -2.9532
1.4528 0.7069 -1.6979 -2.3274 -0.2067 2.4741 -0.0196 -1.9154 -1.7945 0.6186 -0.2440 -4.8798 -2.3979 -0.6344 1.7030 -0.3875 -4.9745 -2.5277 -1.0326 -1.6078 -6.5717 -4.2422 -1.8515 -4.3240 -4.9155 -11.6252 -7.3468 -5.2352 -8.7784 -5.8287
-0.5598 -1.7953 -3.2940 -3.7437 -0.2414 3.1348 -2.2353 -4.7892 -1.6850 0.8390 -0.9885 -6.7125 -2.5579 -0.7535 1.3048 -3.3253 -5.9724 -2.6594 -1.6420 -3.6818 -6.8436 -4.4302 -2.3664 -4.6640 -6.2228 -10.5024 -6.1809 -2.9826 -6.4445 -6.8560
-0.7657 -2.3917 -3.3766 -3.4602 0.0641 2.3647 -3.1978 -6.8435 -0.8439 0.8697 -1.2323 -7.5751 -2.3019 -0.5982 0.1668 -6.1271 -6.6673 -2.5037 -2.2006 -6.3429 -7.6629 -5.6895 -3.8486 -5.8367 -7.6157 -7.9881 -7.2879 -3.1464 -6.5806 -7.1182
-1.1379 -1.9390 -2.6879 -2.4497 0.1554 0.2143 -2.8738 -6.7489 0.2287 0.4139 -1.8578 -5.9718 -1.4799 -0.1807 -1.4010 -6.4577 -5.2675 -1.8387 -2.5749 -7.3663 -6.3894 -5.8912 -3.4557 -6.8718 -8.6047 -4.0413 -6.7301 -4.9716 -7.7381 -7.9622
-0.9041 -1.9882 -2.5841 -1.5315 0.0200 -2.3048 -2.8261 -5.2009 0.7298 -0.1301 -3.1689 -4.4886 -0.7310 -0.0721 -2.2402 -4.2175 -3.3171 -1.5360 -2.5137 -6.3759 -4.0861 -4.7494 -1.4880 -6.5912 -8.1365 -2.4562 -3.3871 -4.0959 -6.2202 -8.2364
2.6583 -1.2491 -1.8710 -0.5237 0.2784 -2.2920 -2.8062 -3.6465 0.2408 -0.3811 -2.7255 -4.2765 -0.8695 -0.6629 -1.6567 -3.1030 -2.8274 -2.3284 -2.2622 -5.5549 -3.7488 -4.8184 -1.4236 -6.4710 -7.5541 -4.6124 -3.3465 -3.1891 -6.5143 -6.9531
6.7704 0.5768 0.5003 0.3822 1.0255 1.1953 -1.4665 -2.8366 -0.3617 -0.0724 0.6824 -3.5049 -1.0752 -1.2461 -0.4830 -4.6594 -2.8133 -3.0073 -2.2407 -5.8580 -4.3860 -5.7898 -3.2387 -7.3868 -8.6181 -5.9610 -6.4702 -5.7218 -11.2964 -5.8602
4.1491 1.2145 2.1523 0.6466 1.2862 4.1438 0.9337 -2.5431 -0.0773 0.4465 3.3223 -1.9631 -0.3041 -1.1639 -0.0128 -5.0658 -2.1700 -2.3869 -2.1183 -5.4074 -3.5669 -4.8431 -3.6317 -7.2393 -9.3858 -4.3567 -5.9023 -7.8256 -13.4896 -6.0773
-4.7334 0.3020 1.1918 0.5912 0.3878 2.7791 2.6026 -2.1420 0.7916 0.0688 1.7452 -0.5449 0.7398 -0.6670 -0.4494 -2.3831 -1.3053 -1.2860 -1.3687 -3.2247 -1.6061 -2.2789 -1.7541 -4.8295 -7.3581 -1.6091 -2.2983 -5.7020 -9.5849 -5.2955
-8.6797 -0.0431 -0.0526 0.9249 -0.7051 -0.6903 2.4719 -1.2938 1.2541 -1.0485 -1.2379 0.9472 1.0950 -0.1473 -0.9813 0.1551 -0.1865 -0.5706 -0.3152 -1.0544 -0.1076 -0.6965 0.6622 -2.0869 -4.0418 0.7736 -1.6242 -1.4159 -4.5729 -1.5855
-3.4239 0.9901 0.7588 1.5677 -0.8008 -1.8388 1.9284 -0.1940 1.1723 -1.1948 -1.5371 2.2586 1.2788 0.2522 -0.7168 1.1927 1.4085 0.3720 0.3348 -0.3259 0.7186 -0.0408 2.4992 -0.6673 -1.7304 1.9552 -2.3956 1.7402 -1.4031 2.4094
1.3764 1.9755 2.0643 2.0140 -0.2542 -0.6421 2.3171 0.6149 1.2726 -0.0887 -0.3822 2.4717 2.0573 0.5071 0.4688 2.4011 2.7126 1.7702 0.4401 -0.5467 1.9606 1.6469 3.4121 -0.0825 -0.3393 2.8895 0.8456 3.2485 0.3658 2.4623
1.3037 1.7155 2.3442 2.3267 0.1034 -0.0562 2.4195 1.0058 1.5436 0.6483 0.0182 1.5212 2.9344 0.6558 1.5775 3.1634 2.9035 2.4568 0.2723 -0.7895 2.9847 3.8024 3.2460 0.2920 0.2334 3.7513 5.7617 4.8054 0.5943 -0.2046
3.0806 1.4678 2.9112 2.6644 0.1659 -0.6735 1.8079 1.4325 1.1315 0.3062 0.7635 0.3371 2.9262 0.4666 1.7436 2.8290 2.1234 1.7717 0.0016 -0.1587 1.7217 4.0428 2.4820 0.5063 0.2336 2.2747 5.8265 6.4132 -0.0525 0.1174
7.6401 2.9773 4.1334 2.7383 0.0733 -0.5122 2.1676 1.8108 0.2990 -0.1908 2.1046 0.0668 2.1533 -0.2024 1.6573 3.3349 1.3232 0.6532 -0.2103 1.8080 -0.2323 2.6940 1.8088 0.9243 1.3783 1.4385 2.7934 5.5630 -0.2970 3.9375
9.4333 4.6457 4.6300 2.7182 0.1654 1.3296 3.2484 1.5628 0.2593 0.0029 2.8507 0.6069 1.6909 -0.6370 2.2811 4.5864 1.2066 0.1946 -0.0634 3.6879 0.2340 2.1426 1.4469 1.9446 3.6709 4.8902 3.0439 3.8168 1.6127 6.3895
9.0506 4.1921 4.5105 2.9079 0.8401 3.3781 3.5755 0.9154 0.8522 0.8224 3.7080 0.5741 1.8749 -0.0592 3.1901 4.9216 1.2495 0.3973 0.6497 4.0069 1.3624 2.6356 1.3537 3.4759 5.2910 5.8582 5.0586 6.0026 6.9722 7.3612
8.9305 3.1310 4.4937 2.7672 1.6851 4.0700 3.5834 0.5296 1.0727 1.6296 4.9979 -0.0282 2.0643 1.1925 3.7682 4.8039 0.7677 0.7814 1.6905 3.9136 0.8876 2.9106 1.4649 4.8162 6.1135 0.5748 3.7708 9.6820 10.8510 9.2676
6.5816 3.1730 4.3021 2.3611 1.9228 3.6534 3.5130 0.4639 1.1730 1.8264 5.4588 0.4826 2.0947 2.0546 4.2167 3.7387 0.4080 1.2281 2.2264 4.4550 0.9515 2.7644 1.5906 4.8224 5.9544 -1.9605 0.8642 8.4618 7.0434 8.6459
2.4262 3.2558 4.2787 2.7675 1.6454 3.0440 2.9876 0.6518 1.6766 1.5531 5.2573 2.2354 2.3347 1.9045 4.4798 1.1830 0.9754 1.6729 1.7494 4.4419 2.5584 2.4014 1.4956 3.4896 3.8020 2.1910 0.5036 4.8977 0.5096 4.0660
1.3425 3.1419 4.7321 3.9056 1.6275 2.3367 3.0088 1.2729 2.0640 1.4440 4.8373 3.2431 2.7105 1.2606 4.1922 0.5616 1.8611 1.8114 1.1243 3.4366 3.2871 1.8144 1.1008 2.4687 1.5449 5.5861 2.2184 5.0760 -0.5198 1.9027
3.1088 3.4794 4.5096 4.6218 2.1784 1.5870 3.5702 2.0089 1.9837 1.4997 3.4461 2.4185 2.8293 0.9421 3.5475 2.7533 1.9394 1.4699 1.1402 2.2442 1.9918 0.9400 0.2318 2.2442 1.2376 3.8067 2.7232 6.0456 0.9453 3.6063
2.9481 3.6374 3.2563 4.3624 2.7848 1.3719 3.3638 1.9658 1.5688 1.1777 1.6435 0.9837 2.2830 0.5534 2.8213 3.4922 0.9836 0.5702 0.8263 0.9267 0.0303 -0.5246 -1.1604 1.2736 0.9606 0.6209 1.0120 2.7118 -1.1181 2.8698
-0.3938 3.6921 2.2537 3.2070 2.8433 1.5704 3.4113 0.8169 0.6923 0.4968 0.7543 0.4742 0.9166 -0.5870 1.9074 2.5797 -0.3482 -0.7719 -0.5726 -0.1415 -0.9315 -1.9957 -2.0880 -0.6716 -0.4495 1.0038 0.0545 -1.2267 -4.2891 -0.8171
-3.3411 4.4310 2.2864 1.9861 2.3686 1.4530 4.9471 -0.6289 -0.1703 0.0095 0.7375 0.4558 -0.4550 -1.6195 1.0548 3.3604 -1.2836 -1.6942 -1.7942 -0.1241 -1.1197 -2.2838 -1.6964 -1.8784 -0.8441 3.3498 1.3547 -0.6524 -3.8495 -1.4539
-1.1679 5.1755 3.2776 1.9768 1.8694 1.2162 5.9373 -1.3831 0.0709 0.0006 1.4054 -0.4393 -0.6619 -1.5185 0.8971 4.6010 -1.5842 -1.4352 -1.9039 0.2726 -2.4919 -1.9878 -1.2503 -2.0865 -0.1889 1.3712 1.0117 1.2564 -0.9588 1.0183
5.5047 4.8228 4.4286 2.9224 1.7536 1.4729 4.4597 -1.4206 1.1236 0.2316 2.3739 -1.9201 0.1506 -0.9530 1.1767 3.4138 -1.6680 -0.5496 -1.8978 -0.3091 -4.6566 -2.3385 -2.0743 -2.7870 -1.4486 -3.7563 -2.5908 -0.3512 -0.7668 -0.5489
9.0619 3.1908 4.0827 3.2896 1.9336 2.0418 1.6003 -1.5345 1.4469 0.3147 2.2677 -2.9324 0.7635 -0.7773 1.0775 0.5949 -2.1687 -0.0421 -2.3380 -1.5049 -4.9936 -2.6554 -2.7508 -3.9992 -4.6451 -4.8761 -4.8131 -3.4409 -4.6327 -7.1688
6.5373 1.3736 2.1997 2.7429 1.8557 2.6355 -0.4637 -2.1410 0.6850 0.4273 1.3271 -3.7035 0.6951 -0.5410 1.1342 -1.6623 -3.1337 -0.1026 -2.1706 -1.8167 -4.1373 -2.3198 -1.6868 -4.2344 -6.0791 -3.1424 -4.2176 -4.2041 -7.5329 -9.3148
3.6624 1.3514 1.0870 2.0052 1.0987 3.0880 -0.2099 -2.6786 0.0197 1.1428 1.4339 -4.0987 0.5362 0.0812 2.1547 -2.1217 -3.5612 -0.2394 -1.0816 -1.0391 -4.3785 -2.3834 -0.1605 -3.4811 -4.5134 -3.9099 -4.2146 -3.3361 -6.4412 -3.1122
1.8922 2.7245 1.1989 1.4537 0.2080 2.6848 1.6856 -2.5117 0.1708 2.0877 1.7956 -3.0404 0.7217 0.4144 2.8587 -0.9115 -2.5463 -0.0031 -0.2880 -0.5338 -4.5197 -2.9727 0.1047 -2.9706 -2.9394 -4.7505 -4.3572 -2.6502 -4.3642 1.8882
-1.6521 2.6513 0.5345 1.4687 0.2026 1.2742 2.4185 -1.8106 0.5616 2.0972 0.0913 -1.4557 1.0381 0.2615 1.9642 0.5429 -0.8968 0.3332 -0.1575 -0.9383 -3.3368 -2.7649 -0.4301 -2.5321 -2.9561 -2.7561 -2.6239 -1.6173 -2.6572 0.0618
-3.1924 1.6084 -0.3933 2.2563 0.9834 0.3923 1.7978 -1.0175 0.5947 1.2802 -1.8947 -1.0631 1.1590 0.2836 0.7777 1.6714 -0.1713 0.1724 0.1590 -1.1623 -2.5435 -1.7834 -0.6217 -1.2805 -2.3074 -0.8193 -1.1254 0.5227 0.3871 -1.4385
-0.1270 2.8786 0.7403 2.9638 1.4670 1.4013 2.8627 -0.3102 0.4599 0.9957 -0.6906 -0.6997 0.9745 0.4469 0.7816 2.7122 -0.5029 -0.2919 0.4356 -0.4569 -2.3055 -1.4014 -0.3066 -0.1546 0.0467 1.1140 -0.9829 1.8623 2.4230 1.6920
1.3510 5.2460 2.5895 2.7851 1.1674 3.3243 5.1535 -0.0178 0.3589 1.4537 2.0747 0.5472 0.5978 0.1677 1.3031 2.5941 -1.0596 -0.5545 -0.1557 0.1649 -1.5268 -1.8817 0.0714 -0.5534 1.3242 4.3555 -0.7097 -0.0957 0.3383 3.6637
-0.5333 4.2352 2.1790 2.2402 0.4010 4.0796 4.7099 -0.4551 0.3024 1.6351 2.5070 0.2493 0.4140 -0.0037 1.3207 1.1828 -1.4185 -0.5548 -0.6446 -0.0349 -1.5164 -2.0297 0.4564 -1.1029 0.3336 3.6205 -0.3574 -1.8988 -0.5413 2.1416
-0.3469 0.0464 0.2457 1.9956 -0.4096 3.0422 1.3941 -1.2628 0.5366 1.2579 0.8954 -2.2360 0.7460 0.7324 0.9222 0.4564 -1.2508 -0.1010 0.1962 -0.1905 -2.4393 -1.0921 1.2018 0.1904 -0.3894 -2.3132 0.4686 1.6008 4.8925 2.1713
1.0296 -3.0626 -0.9858 1.8537 -0.8523 1.4240 -1.4393 -1.9882 0.7896 0.6865 -0.4049 -3.8521 1.0702 1.4083 0.3021 -0.1099 -0.8753 0.5066 0.9965 -0.2719 -2.3226 -0.3923 1.5754 1.3511 -0.8177 -4.8037 1.6572 4.2747 7.6575 3.0283
-1.0878 -3.6151 -1.5779 1.7920 -0.7601 0.8714 -2.6951 -2.7468 0.3983 0.0922 -0.9123 -3.8582 0.4337 0.8878 -0.6060 -3.1899 -1.7627 -0.0502 0.0267 -1.7325 -2.3383 -1.7392 0.3406 -0.5755 -3.6438 -1.7277 -0.2925 -1.8781 -0.4598 -0.8723
-4.3806 -3.4996 -2.1966 2.1912 -0.5261 1.4881 -3.4125 -3.4605 -0.0014 -0.2035 -1.2165 -4.3976 -0.7989 0.0288 -1.6112 -7.5256 -3.8182 -1.7281 -1.7903 -4.5394 -4.3861 -4.1357 -1.6695 -4.0116 -7.4124 -0.7345 -4.9576 -8.5151 -8.7017 -6.1605
-5.0514 -3.5879 -2.4532 2.8188 -0.5591 1.3379 -3.7954 -3.4420 0.6830 -0.2846 -2.1908 -5.2352 -1.2273 -0.2710 -2.5710 -9.2281 -4.7533 -2.6168 -3.1716 -7.2021 -6.2967 -5.2541 -3.0544 -6.2058 -9.0335 -3.7927 -7.4091 -6.7977 -7.4688 -7.0436
-5.4441 -3.3263 -2.1742 3.2896 -0.7367 -0.6425 -3.3976 -2.3569 1.8694 -0.9895 -4.2011 -4.6031 -0.6776 -0.4966 -3.3898 -7.8694 -4.0426 -2.0835 -4.2905 -9.0023 -6.2647 -5.1186 -3.9657 -7.2953 -9.5589 -6.1509 -7.7669 -4.6078 -5.2956 -7.7023
-8.3098 -3.5604 -2.1062 3.6382 -0.9153 -2.8022 -2.7714 -1.2564 2.4496 -2.2003 -5.6523 -3.6574 -0.2012 -0.5865 -3.6385 -6.1448 -3.7221 -1.3279 -4.5881 -9.3425 -5.7832 -4.7357 -3.7973 -7.0749 -9.7786 -6.1970 -7.6561 -6.5941 -6.9157 -10.9324
-10.4797 -5.5477 -3.0025 3.3586 -1.2520 -3.2124 -3.4245 -2.0796 2.2507 -2.6378 -5.1595 -5.2952 -0.4826 -0.2152 -3.4817 -5.9629 -4.9809 -1.3859 -3.4999 -8.0587 -6.0962 -4.3273 -2.0445 -5.2541 -8.5982 -6.0064 -5.0434 -6.4935 -6.0506 -11.3796
-7.7472 -7.6980 -4.5276 1.9663 -1.6427 -1.7297 -5.4176 -4.8560 1.1805 -2.0494 -4.2204 -9.2238 -1.6199 -0.4408 -3.8722 -7.0862 -6.9020 -2.7492 -2.9372 -7.2920 -7.2141 -4.7775 -1.4452 -4.7606 -8.2784 -6.9762 -2.2216 -6.5002 -5.5434 -9.4990
-3.7428 -7.7293 -5.7543 0.4571 -1.9278 -0.0880 -6.6894 -6.6743 -0.4018 -1.4277 -4.8977 -11.4288 -2.9470 -1.5039 -4.6568 -8.1396 -7.8243 -4.7702 -4.1395 -8.7727 -8.4535 -6.2943 -3.4963 -6.8769 -10.6397 -8.1624 -4.0201 -11.2052 -10.8572 -10.6537
-6.1075 -6.7456 -6.6113 -0.3020 -2.3809 -0.7636 -6.3130 -5.9462 -1.0680 -1.1874 -6.7067 -9.6778 -3.1038 -1.5788 -4.4270 -8.2885 -6.8755 -5.2406 -4.7507 -10.3767 -7.8668 -6.5022 -4.7087 -7.7671 -11.5823 -7.3636 -6.6893 -12.7459 -13.6931 -11.7036
-12.6747 -6.2419 -7.0209 -0.9030 -2.7555 -3.4250 -5.1762 -4.5980 -0.4468 -0.8486 -7.5165 -6.1920 -1.8193 -0.2258 -2.8927 -7.1213 -4.6612 -3.2697 -3.0982 -9.2730 -4.5713 -3.9956 -2.7965 -5.5444 -8.3585 -3.3789 -3.8306 -6.9093 -7.8186 -8.1482
-14.2443 -4.7077 -5.8937 -1.3866 -2.1984 -4.5643 -3.1746 -3.8936 0.1092 -0.2022 -6.2912 -3.4366 -0.3174 0.5895 -1.3878 -4.4193 -2.5902 -1.0110 -1.2672 -6.5591 -1.1318 -1.2394 -0.5051 -3.5887 -5.1163 1.9194 1.2450 -2.8490 -2.2420 -4.9117
-10.8180 -1.9883 -3.6031 -1.0483 -1.0362 -3.0411 -0.4284 -3.1328 0.1097 0.2942 -4.1836 -2.0750 0.4772 0.0861 -0.7598 -1.8475 -1.9526 -0.4480 -0.9945 -5.2247 -0.9775 -1.0728 -0.3164 -3.8739 -5.2467 2.9976 1.0251 -4.8700 -4.0098 -5.9375
-8.8402 -1.1387 -2.6058 -0.4937 -0.5152 -1.5264 0.5825 -2.7592 0.2498 0.2870 -3.0831 -2.7246 0.4300 -0.2989 -0.6481 -1.6016 -2.9010 -0.9205 -1.0472 -5.4107 -4.0082 -2.7195 -1.1407 -4.1899 -6.1507 -2.8519 -3.9798 -6.1998 -6.5256 -6.6622
-8.6935 -3.0229 -3.6233 -0.7020 -0.7767 -1.7516 -1.4869 -3.3494 0.3204 -0.0470 -3.5300 -4.4369 -0.2714 0.1217 -0.9981 -3.4475 -3.7017 -1.0587 -0.6152 -5.6834 -6.3330 -3.4441 -1.4687 -3.4093 -5.6534 -8.4609 -7.1107 -4.1243 -4.0891 -4.8916
-9.3827 -5.1939 -4.8180 -1.3097 -1.2686 -3.0587 -4.2463 -3.5315 -0.2440 -0.4588 -4.3136 -4.5457 -0.9792 0.3102 -1.8990 -6.1698 -3.0819 -0.8930 -0.7398 -6.1810 -5.6228 -2.8882 -1.5001 -3.3031 -5.7070 -6.9050 -5.9883 -3.7270 -1.9994 -3.9946
-12.1454 -6.0872 -5.1178 -1.7678 -1.8086 -4.1320 -5.1698 -3.0070 -0.8688 -0.6768 -3.9483 -3.6490 -1.2941 -0.1401 -2.1794 -8.7110 -2.8074 -1.2927 -1.4729 -6.7223 -4.8211 -3.2195 -1.7404 -4.4314 -7.0927 -4.3970 -4.6762 -6.3534 -4.0169 -4.3734
-12.3021 -5.7093 -4.9943 -2.0796 -1.7420 -3.1990 -4.6981 -3.8032 -0.9979 -0.3560 -2.7001 -4.9945 -1.7413 -0.4421 -1.3516 -9.2741 -4.6237 -2.5375 -1.9240 -6.5243 -6.8819 -5.2440 -2.4299 -5.6393 -8.3069 -8.3881 -6.7555 -8.8490 -6.5104 -5.7572
-5.9073 -4.2131 -4.6971 -2.0661 -0.6968 -0.0719 -4.0158 -5.8131 -0.8757 0.0673 -2.4559 -7.4326 -2.4143 -0.5572 -1.3212 -7.3328 -6.4223 -3.7494 -2.3835 -6.6375 -8.7943 -6.9503 -3.6057 -6.7376 -9.2202 -12.2879 -10.0508 -11.3235 -8.9007 -9.5690
-1.7497 -2.7852 -4.3449 -1.8798 -0.2395 1.5419 -2.9708 -6.1231 -0.4092 -0.3895 -3.9306 -6.5360 -2.3315 -0.7822 -2.9197 -4.6190 -5.3191 -3.5845 -2.7994 -7.0892 -6.3538 -6.0723 -3.7225 -6.9634 -9.1340 -8.0278 -9.4042 -12.9821 -11.4156 -11.3274
-7.2295 -3.5026 -4.7131 -2.2391 -1.4587 -1.1934 -2.3263 -4.5796 0.4860 -1.5912 -5.7574 -2.9447 -1.3290 -0.3244 -4.2997 -2.9675 -2.4510 -1.7970 -1.9520 -5.6694 -1.5123 -2.7759 -1.0251 -4.5238 -6.1926 -0.8590 -4.3438 -9.1810 -8.5797 -6.6765
-14.4171 -6.2451 -5.9296 -3.0335 -2.7519 -5.1478 -3.8326 -4.0561 0.9543 -2.6239 -6.9309 -1.2613 -0.4170 0.7791 -4.8113 -3.5845 -0.8388 0.2420 -0.5579 -3.6442 1.0753 0.4404 2.4740 -1.2896 -2.8728 2.4968 0.2344 -2.1631 -1.3916 -2.7795
-15.8574 -8.3360 -6.7639 -3.3166 -2.7699 -6.3589 -6.2194 -4.7549 0.6071 -3.3558 -7.8576 -2.0562 0.1149 0.8031 -5.6459 -6.0133 -0.7184 1.1606 -0.7623 -4.8209 0.7906 1.5227 3.0029 -1.4549 -3.7433 3.6367 1.5706 -0.3703 0.1579 -5.9614
-15.1137 -8.5235 -6.6841 -2.8773 -2.2950 -5.9926 -6.7659 -4.7568 0.2760 -3.7843 -8.7541 -2.9731 0.5261 -0.3084 -6.5712 -7.5082 -0.7423 1.1499 -1.8300 -7.9563 -0.6947 0.8734 0.9627 -3.9942 -6.9007 2.3677 0.3653 -3.6226 -4.2339 -8.7515
-14.3267 -8.0497 -6.5992 -2.3835 -2.0776 -6.3899 -6.3099 -4.4385 0.3202 -3.3927 -9.1351 -3.5054 0.6417 -0.3011 -6.4880 -6.8847 -0.6614 1.3942 -1.3594 -8.6481 -1.8956 0.3878 -0.1962 -4.3605 -7.0918 -1.3853 -1.9659 -4.8776 -5.3908 -4.9231
-12.2931 -7.7394 -6.8785 -2.3411 -2.0636 -6.7480 -6.6593 -4.7660 0.1923 -2.4448 -8.8357 -3.2510 0.5418 1.2691 -5.6265 -5.9379 -0.1196 2.2827 0.2942 -6.6173 -0.5746 1.2400 0.6637 -2.2595 -4.6940 0.2482 -1.7533 -3.2834 -2.6963 -1.3264
-11.9023 -7.5590 -7.0002 -2.7724 -2.2686 -5.8060 -6.6558 -5.0119 -0.3364 -1.8541 -8.0191 -2.0550 0.2311 2.1155 -4.5459 -5.1907 0.9237 2.7870 1.2544 -4.3524 2.3133 2.4641 2.1516 -0.1737 -2.7714 6.3689 2.1345 -2.0443 -1.1729 -2.2971
-13.7451 -7.7211 -6.7218 -3.2732 -2.3822 -3.8948 -5.3892 -4.8066 -0.8849 -1.5463 -6.5230 -1.8519 -0.5148 1.4768 -3.0222 -3.5471 0.9972 2.3723 1.6822 -2.4265 2.3319 2.6239 3.2712 1.9295 -0.9953 4.3240 3.9028 -0.5835 0.4531 -2.3432
-13.6277 -7.8611 -5.8410 -3.1673 -1.8431 -1.8963 -4.0673 -4.2569 -0.8701 -0.8197 -4.1605 -2.2970 -0.5693 1.4395 -0.7821 -1.7156 0.4392 2.4687 3.0108 -0.3439 0.5423 2.8050 4.4025 4.8150 1.1980 -2.9306 1.8847 2.1886 3.4658 -0.4987
-12.4676 -7.2770 -4.3448 -2.4813 -1.0078 -0.8928 -2.8976 -2.9732 -0.2109 0.2676 -1.4224 -0.5654 0.9310 2.7206 1.7175 -0.8898 1.4147 3.9163 5.3084 1.5874 1.7284 4.4754 6.2559 7.4293 2.6036 -1.8001 1.8544 3.9813 4.4678 0.0814
-14.2033 -6.4883 -3.2513 -2.2518 -0.7295 -1.0723 -1.2230 -1.6780 0.1793 1.0913 0.5181 2.1251 1.9960 3.3171 3.4010 -0.2670 2.9602 4.9330 6.9951 2.8985 4.0414 5.9567 8.2345 8.7960 3.2737 3.7875 4.3374 3.9708 4.5024 2.1895
-16.4873 -6.0729 -3.1784 -2.8497 -0.9259 -1.0767 0.2838 -1.6494 -0.4117 1.2528 0.8208 2.4279 1.0256 2.5946 3.6811 0.9848 2.6739 4.1868 6.7372 3.2789 3.2574 5.3047 8.6054 8.7561 3.3573 4.2044 5.3398 4.7757 6.9540 5.6703
-15.3616 -4.9518 -3.0888 -3.1648 -0.8895 -0.3403 1.1961 -2.3008 -1.2619 0.8196 0.0440 0.8973 -0.3201 2.1478 2.9366 2.0728 1.2458 2.7987 4.9804 2.4423 0.4753 3.0527 6.5960 6.8747 1.7716 2.1095 4.4729 5.5267 7.0329 4.2328
-12.3625 -2.9255 -2.5967 -2.4997 -0.4042 0.4370 1.6426 -2.5666 -1.2676 0.3293 -0.6932 -0.6782 -0.6920 2.1659 1.5995 1.5272 -0.1039 1.5652 3.0831 0.5925 -2.5178 0.0285 3.2638 3.5196 -0.7413 -0.6743 1.2812 2.0892 0.9231 -0.4415
-10.0779 -2.4586 -2.9538 -1.7587 0.2451 1.2393 0.2477 -2.7563 -0.5932 0.2409 -1.2251 -2.1862 -0.9828 1.4033 0.1095 -1.5481 -1.6322 0.0044 1.5074 -1.5333 -5.1114 -2.9012 0.4206 0.4775 -2.6828 -4.8337 -3.8680 -3.6886 -4.1161 -2.2128
-7.2815 -3.9457 -3.7171 -1.6389 0.6632 1.9769 -2.7555 -2.8043 -0.2591 0.3294 -1.5151 -2.7828 -1.3255 0.2284 -0.6445 -5.1558 -2.5049 -1.3708 0.0800 -2.9900 -5.1309 -4.0421 -0.7363 -1.3121 -4.8241 -4.8819 -6.0044 -6.6737 -4.3816 -3.3352
-3.1710 -3.9836 -2.7041 -1.4193 0.5509 1.6923 -3.2459 -1.9582 -0.3874 0.2007 -0.9966 -1.8654 -0.8156 0.0492 -0.3742 -4.8757 -1.8011 -1.3671 -0.6801 -3.1281 -3.0650 -3.0575 -0.1881 -2.2004 -6.9175 -1.2804 -3.9283 -6.8406 -5.4269 -6.3461
-1.9856 -2.0580 -0.8181 -0.8215 0.0339 0.2893 -0.0412 -1.0125 -0.3223 -0.0651 -0.4910 -1.0840 0.0418 0.7494 0.1205 -0.3848 -0.7468 -0.2269 -0.1132 -2.4551 -2.2847 -1.1148 1.2618 -2.0447 -6.5681 -1.4212 -1.7118 -5.2330 -6.3408 -7.2163
-6.2421 -1.3788 -0.9959 -0.8862 -0.2769 -1.4022 2.3096 -1.0956 -0.2694 -0.3115 -1.5571 -1.0848 0.2060 1.2302 0.1536 3.1822 -0.1741 0.8819 1.2461 -1.9185 -2.0537 1.0687 2.4641 -0.9919 -4.3017 -2.3284 0.5925 -1.4988 -3.0225 -4.9387
-9.9818 -1.9710 -2.3801 -1.8481 -0.0743 -2.8990 1.6018 -1.2566 -0.7162 -0.6915 -3.0840 -0.2938 0.0089 1.2613 -0.2839 3.3316 0.6730 1.3737 2.1589 -1.0799 -0.0596 2.5640 2.8254 -0.0943 -2.7008 1.9781 3.9479 2.0036 -0.0272 -2.8959
-9.1290 -1.8447 -2.3466 -2.6008 -0.0182 -3.7261 0.5114 -0.6139 -1.0905 -1.2099 -2.8460 1.4882 0.0026 1.1512 -0.7555 2.3658 1.5239 1.2337 2.0998 0.6524 1.5527 2.3024 3.2000 0.8983 -1.3529 5.8363 4.7670 3.6661 0.9590 -1.6122
-8.3552 -2.0492 -1.7052 -2.7021 -0.5625 -3.3092 0.2759 0.0214 -0.8863 -1.4663 -1.5344 2.8222 -0.0749 0.8702 -0.8806 1.3478 1.5285 0.8117 1.5607 1.6571 1.3375 1.1804 4.2516 2.6091 0.6318 5.1737 2.8354 4.6047 4.3599 0.4978
-8.5932 -3.2772 -2.0121 -2.6081 -0.9407 -2.0787 -0.2055 0.3822 -0.4770 -1.4267 -1.2690 2.9606 -0.2733 0.4260 -1.3594 -0.0017 1.2080 0.5211 1.1492 0.3206 1.5676 0.6854 4.6290 3.2992 1.3998 5.2852 2.9460 4.3360 6.6987 3.6261
-5.5453 -3.7165 -2.6123 -2.4418 -0.7081 -1.2262 -0.9019 0.5777 -0.2754 -1.6378 -2.2574 1.3520 -0.5382 -0.0151 -3.0310 -0.5468 0.5259 -0.0054 0.8107 -2.0394 1.4446 0.1143 3.1839 1.7204 0.2818 5.8589 4.3834 2.9772 3.5508 5.5703
-2.9841 -3.4685 -3.2393 -2.3221 -0.4736 -0.8881 -1.3450 -0.2657 -0.6848 -1.9004 -3.0090 -1.6067 -1.5050 -0.4372 -4.5222 -0.7603 -1.4844 -1.1550 0.4027 -3.4065 -1.5175 -1.4628 1.3521 0.0543 -0.7706 2.3667 2.5884 2.7774 0.5568 3.2741
-7.2797 -4.0012 -4.2375 -2.8721 -0.4822 -0.2696 -1.4948 -1.6952 -1.8339 -1.3213 -2.2228 -2.7369 -3.1746 -0.6176 -3.7346 -2.4018 -3.5401 -1.9747 0.4749 -3.3247 -3.9391 -2.7585 1.2281 0.5318 -0.6136 -0.2519 -0.4542 3.2845 1.4126 -0.8721
-13.6590 -4.3147 -4.7545 -4.0585 -0.6092 0.3346 -0.7829 -1.8970 -2.7239 -0.2201 -0.5023 -0.6436 -4.2037 -0.1004 -1.2087 -3.3456 -3.5520 -1.5166 1.4969 -1.5959 -2.6127 -2.6859 2.9303 2.7242 1.0961 1.5932 -0.8393 2.8564 3.1616 0.2616
-13.9460 -3.1940 -4.2045 -4.4875 -0.8477 0.0107 0.6261 -1.0736 -2.2783 0.4462 0.2859 1.1647 -3.6433 1.2330 0.9110 -0.7345 -2.0299 -0.1226 3.1114 1.3748 -0.9971 -1.6825 5.1338 5.2799 4.5360 1.5868 0.0607 2.8750 5.7927 6.7485
-9.7423 -1.9221 -3.2357 -3.1747 -0.7460 -0.8408 1.2884 -0.3477 -0.9324 0.9344 -0.0142 1.3589 -1.7193 2.8991 1.6969 2.5078 0.1648 1.7099 4.6590 3.2978 0.1076 0.5689 6.8788 7.0957 7.6893 1.4643 2.4474 4.5950 9.7218 10.8504
-7.3132 -1.7208 -2.5218 -1.3931 -0.2531 -1.2827 0.7127 0.4723 -0.1152 1.2797 -0.3206 2.5587 0.3686 3.6292 1.2008 2.3343 2.6991 3.1637 5.1780 2.6803 3.8918 3.5559 7.5135 7.0716 7.9722 8.3127 7.7471 6.1897 10.8882 9.6107
-7.0766 -1.8675 -2.3965 -1.0540 -0.3765 -1.5748 -0.2150 0.8873 -0.5072 0.3653 -1.0767 3.5571 0.7740 2.4395 -0.4451 0.4698 3.2936 2.7962 3.7706 1.0738 6.2623 3.9182 6.2515 5.0795 6.0343 12.7245 9.5929 5.8839 8.0528 6.5661
-6.1960 -1.7087 -2.8045 -1.8590 -1.3604 -2.6875 -1.0899 -0.0679 -1.1963 -1.3791 -2.7179 1.5842 -0.5036 0.6506 -2.4213 -0.1073 1.2299 1.2418 1.5817 0.4702 2.4432 1.1334 3.9064 2.9084 4.5952 5.4639 3.8658 5.0063 5.5532 4.3166
-4.7828 -1.8406 -3.2008 -2.3684 -2.0426 -4.1207 -2.3879 -1.2458 -1.1393 -1.9221 -3.6791 -0.5677 -1.0887 0.3376 -3.1430 -0.6380 0.1460 0.9835 0.9558 0.9491 -0.9861 -0.1482 2.8560 2.4025 4.7916 -0.3669 -0.0599 5.2913 5.5568 4.5887
-2.8567 -2.0008 -2.8811 -2.6316 -1.5893 -3.4072 -3.5509 -1.0835 -0.8262 -1.0442 -2.6674 0.1255 -0.3850 0.9610 -1.6314 -1.8919 1.6934 1.9626 1.7519 1.8252 1.6339 1.8818 3.3732 3.1145 5.7202 5.4033 4.2324 5.4819 5.8585 7.9715
1.1818 -0.4534 -1.1601 -2.9715 -0.3148 0.0772 -2.4129 0.1541 -0.8716 -0.1142 -0.2152 1.8339 -0.1066 0.9604 1.0435 -0.8919 3.1425 2.2277 2.1046 2.8900 4.5863 3.8968 3.6376 3.6885 6.4918 11.1619 8.5981 4.7688 5.2717 9.4175
5.1036 2.6143 1.6632 -2.4731 0.8993 2.8472 1.3750 1.5673 -0.6654 0.5385 2.4773 2.9329 -0.1630 0.8361 2.6633 3.1468 3.4586 2.2157 2.0904 4.0767 3.7955 4.5801 3.6407 4.1831 7.1918 7.8044 7.1834 5.1864 4.5788 4.8167
4.9770 4.4955 3.8197 -1.0871 1.4387 2.3471 4.8481 2.6241 -0.0261 1.2292 4.3363 4.0436 0.8724 1.4662 3.0326 6.8759 4.1941 3.3205 2.9439 5.2310 3.2743 5.5577 4.5354 5.4938 8.5063 1.8495 5.2606 6.8331 4.7293 0.7979
2.7446 4.4554 4.2013 -0.0932 1.5116 0.5825 6.0269 3.0619 0.3410 1.7755 4.8459 4.9344 2.4278 2.1470 3.9724 8.8809 5.3054 4.4918 4.5143 6.4141 4.6019 6.5279 5.7257 8.0003 11.2903 -0.6089 6.1365 7.8877 7.6909 5.1275
2.6581 4.1429 3.4741 0.3607 1.6172 -0.1559 5.5868 2.7899 0.2852 1.9430 4.3075 4.7012 2.9347 2.1476 5.3420 9.9208 5.5147 4.1512 5.7527 7.4657 4.8277 6.0228 6.1320 10.6681 14.5593 0.1557 6.9307 9.0024 13.2760 12.3350
3.5285 3.2926 2.4069 0.8385 1.6880 -0.2928 3.7825 1.9917 -0.1067 1.6336 3.5048 3.6596 2.2021 1.8198 5.1656 8.5352 4.6101 2.8217 5.8070 7.5403 3.7116 4.5400 5.7368 11.3151 14.5721 3.5252 6.4680 9.7549 15.8821 12.0439
1.4197 0.9177 1.3114 0.7556 1.1976 -0.6160 1.3128 1.6218 -0.9488 0.8894 3.1337 3.1977 1.1422 1.7087 3.7275 4.4844 3.2976 1.7385 4.5668 6.3610 3.1671 3.3626 4.8449 9.6733 10.2657 6.9465 5.3544 6.8989 11.8019 5.5626
-3.6815 -0.9937 0.4748 -0.3611 -0.0120 -1.1563 0.8026 2.1604 -1.7030 0.0168 2.7136 4.0471 0.6422 1.8640 2.6029 2.0972 2.6549 1.2751 3.3362 4.9923 3.3814 2.9324 4.1460 8.2259 6.6254 7.0795 3.7096 2.5184 5.9424 2.4623
-6.8334 -0.6799 -0.0401 -1.5764 -1.0741 -1.5348 2.4058 2.2847 -1.7180 -0.6641 1.4467 5.0432 0.8538 1.9872 1.4198 3.4276 3.3804 1.4861 3.4359 4.0661 4.1883 3.4131 4.2344 7.9869 7.1032 5.8613 3.5450 3.1762 4.9758 5.2169
-3.6930 0.4402 0.2944 -1.8294 -0.9613 -0.6472 3.3604 1.7591 -1.2799 -0.6024 1.0234 5.3442 1.3239 2.0218 0.1540 4.9959 5.0750 2.3847 4.2608 3.2773 6.2122 4.8075 4.5341 7.5853 8.6925 6.7674 6.5258 7.6978 8.0374 7.8802
2.0246 1.5262 2.0763 -1.0764 -0.1695 1.5652 3.8835 2.7463 -0.8559 0.5914 3.2785 6.6906 1.9404 2.4518 0.6554 5.2351 7.1266 3.6557 4.8457 3.4282 9.5011 6.8749 5.0007 7.2504 9.2874 9.8463 10.6632 9.3922 10.3479 8.4154
2.4935 3.2374 3.7385 -0.2892 -0.1101 2.7804 5.8211 4.9919 -0.4144 1.8364 5.5292 9.4871 2.6554 3.3914 2.3620 6.2836 8.6117 4.6663 5.4670 5.3397 12.2213 8.8256 6.3692 8.0827 10.8201 12.8763 12.4176 8.9684 12.0834 10.7162
-1.7386 4.0677 2.9112 -0.6670 -0.9292 1.7791 6.9147 4.9892 -0.1227 1.7673 4.4394 9.7720 2.6766 3.8035 2.0670 7.1608 7.7110 4.5213 5.7231 6.6181 11.3025 8.7308 6.9727 8.3123 12.2368 11.7661 10.1158 10.3483 14.5095 13.4935
-4.0954 2.0081 0.3344 -1.8273 -1.4251 0.8335 4.3906 2.3695 -0.4465 1.0095 1.8627 5.7841 1.7160 2.8425 -0.1530 4.5637 4.7124 2.9945 4.3333 4.4442 7.2601 6.0742 4.6542 6.2994 10.2385 6.7000 7.3077 10.8462 13.9809 11.4896
-4.1012 -1.2625 -1.3000 -1.9722 -0.9084 1.5821 0.5780 0.6836 -1.1818 0.7789 0.9760 2.3178 0.6428 1.2531 -1.3129 -0.3016 2.7354 1.1957 1.9347 0.5244 5.0510 3.3492 1.4858 4.2571 6.6472 5.6259 8.5812 8.1766 10.2278 7.4423
-5.0003 -3.1864 -1.7684 -1.0014 -0.0658 1.9682 -1.5684 0.7434 -1.5781 0.6357 0.9175 2.3086 -0.4886 0.0731 -1.6034 -3.7700 2.1669 -0.1703 0.3029 -1.8584 5.5279 1.5262 0.3777 3.5653 4.3822 9.4749 9.7623 5.3555 7.7818 5.7630
-6.4490 -4.4907 -2.8942 -0.6676 0.2226 0.3056 -3.2585 -0.0219 -1.5673 -0.1840 -0.3757 1.7270 -2.2554 -0.6702 -3.0589 -5.5458 0.1668 -1.4722 -0.5563 -2.5717 3.7919 -0.9705 0.4319 2.2653 1.8824 7.3628 4.4890 3.1467 5.5285 2.5908
-8.1648 -6.1500 -4.6197 -1.2355 -0.0322 -1.6179 -5.1147 -1.7068 -1.6407 -1.0337 -2.2371 -1.2092 -3.3383 -0.9160 -4.3873 -6.2042 -2.6164 -2.0319 -1.0035 -2.3791 -0.1863 -2.7376 0.5582 0.9586 -0.3420 -1.7400 -2.1816 0.4133 1.8495 -1.6734
-10.5260 -6.4986 -4.9517 -1.5632 -0.5125 -1.8703 -4.5188 -2.0066 -1.7987 -1.0399 -2.7936 -1.8028 -2.0518 -0.3243 -3.5507 -4.2894 -2.3791 -0.6206 -0.0757 -0.9927 -0.2009 -0.6156 1.7563 2.5868 1.0913 -3.9798 -1.8473 -0.6413 1.5344 -0.1131
-9.8178 -4.7812 -3.3045 -1.4982 -0.9338 -0.8015 -1.5448 -0.9474 -1.7556 -0.4847 -1.6677 1.2226 0.2749 0.5141 -1.7220 -0.3540 0.7112 1.8256 2.0225 0.8217 4.2961 3.7494 3.5329 5.6325 4.2188 3.0920 2.9188 1.7185 5.1544 3.5872
-4.2709 -2.7474 -1.2398 -1.2738 -0.8739 0.3843 0.1617 0.0119 -1.5361 -0.0842 -0.2203 3.1661 1.2705 0.7577 -0.5576 2.4044 3.0572 3.3153 3.2229 1.9866 6.9021 6.1227 4.1937 6.4088 5.1964 5.5890 4.8350 5.2492 7.3013 2.2825
0.6493 -1.2527 0.0286 -0.6666 -0.5526 0.5850 -0.0403 1.1940 -1.2571 -0.0398 0.1841 3.2587 1.1732 0.6376 0.0305 3.1679 4.1083 3.5212 2.7865 2.9143 6.5328 6.3047 3.9528 5.2418 5.1068 1.5838 4.1914 6.5170 6.5854 0.5371
1.5945 0.2986 1.0375 0.0807 -0.5127 -0.1203 0.4651 3.0109 -0.9829 -0.0886 0.2954 5.2424 1.3998 0.5597 0.2416 3.5060 5.8085 3.1667 2.0755 3.8382 8.0598 6.5523 3.6154 4.3375 5.3440 2.9815 4.9817 4.8643 5.4283 2.3029
1.0952 1.4991 2.3900 0.6059 -0.2819 0.0927 2.1517 4.3473 -0.7988 0.1709 1.8105 8.4764 1.8134 0.2896 0.1306 3.4926 7.6078 2.5843 2.0538 4.0726 10.8345 6.7281 2.9827 4.3166 5.2420 8.3471 6.1816 3.5869 5.6647 4.1719
-0.3184 1.4122 3.1388 1.0910 0.5322 1.7415 3.1731 4.6703 -0.6209 0.7246 3.8067 9.0983 1.7224 -0.1277 0.1099 2.4803 7.5683 2.1304 2.3802 3.7966 10.2235 5.7796 2.2658 4.9778 5.4484 7.4117 5.5290 4.2621 6.9489 5.6887
-3.2255 0.7263 2.4426 1.4614 0.9210 2.6299 3.0460 4.3662 -0.3805 0.9708 3.8412 7.4183 1.2805 -0.1392 0.2187 1.9939 6.1796 2.3139 2.7046 4.3075 7.6293 4.6970 2.3338 5.7988 6.4263 3.9700 4.7572 3.6093 7.2258 6.7569
-4.8429 0.5925 1.3243 1.2316 0.1128 1.6775 2.8756 3.2744 -0.4585 0.6046 2.3234 6.3258 0.7758 0.3872 0.2806 3.6225 5.3078 3.0195 3.2358 6.0552 7.2741 4.8583 3.5452 6.4032 7.1319 5.9025 5.7502 2.2995 7.6082 4.9474
-4.5941 0.0327 0.8401 0.3643 -1.1653 0.7170 2.6084 1.8151 -1.0387 0.0787 1.6934 6.1279 0.5310 1.0646 0.3855 4.9437 5.5777 3.7339 3.9679 7.3673 8.6379 6.0449 5.4135 7.1557 7.2839 8.7455 8.0964 5.7535 10.1571 3.3598
-4.9949 -1.7645 0.8215 -0.4143 -1.7819 1.2110 1.5354 1.6063 -1.2766 -0.0427 2.5161 6.1296 1.1345 1.6706 0.4111 2.8327 6.5319 4.1769 4.2602 6.3708 9.4027 7.0922 6.5474 7.6385 6.7880 7.3248 9.9047 10.3435 10.4078 5.0835
-4.2688 -2.0370 1.6472 -0.1537 -1.2237 2.2119 1.3206 3.0545 -0.4476 0.3628 3.6503 7.2098 2.2677 2.2423 0.2160 0.2944 7.5579 4.0856 3.6398 4.1237 9.5986 7.0877 5.7630 6.7918 5.4084 5.7383 8.4424 7.4212 5.4174 5.9114
0.0160 1.0948 3.4271 1.0057 0.0247 2.2910 3.4361 4.4650 0.6278 0.8710 3.9931 9.0021 2.7543 2.5402 0.1344 2.3346 8.0229 3.3938 2.6102 3.6164 9.6965 6.3092 4.1916 5.4409 4.9366 6.8410 4.9604 2.0716 3.0447 4.6248
2.8861 3.7485 3.7278 1.4546 0.6423 1.4068 4.7825 4.1732 0.7252 0.8060 2.4601 8.7493 2.2922 2.0324 0.1606 6.3136 7.4680 2.6136 1.8856 5.1308 9.4636 5.8378 3.7717 5.0040 6.6425 7.6608 5.1116 4.7540 8.3387 5.6586
-0.1104 2.5751 1.3144 0.3855 0.1396 0.4444 2.7231 2.4505 -0.1626 0.0111 -0.4714 6.1863 1.3670 0.7903 -0.3160 6.0436 6.0682 1.9081 1.2094 5.4932 9.1259 5.6472 3.5542 4.4655 7.6508 7.7215 8.8258 10.1463 12.2094 8.1431
-3.4981 1.1144 -0.2467 -0.5362 -0.1623 0.3085 0.9307 1.3990 -1.2336 -0.7184 -1.5795 4.8812 0.2440 -0.1915 -0.9988 2.7795 4.7690 0.8015 0.2122 3.4218 8.7843 4.7112 1.6437 2.7065 5.8606 8.3952 8.9655 7.8029 7.2054 7.8752
-1.9398 2.6976 1.3126 0.1788 0.5232 0.9581 2.5085 2.3912 -1.8198 -0.4792 0.4909 5.9610 -0.6292 -0.2576 -0.6744 2.0399 4.3143 -0.4000 -0.2758 2.0505 7.9510 3.3745 -0.2863 1.7905 4.8339 7.4074 4.7789 2.7525 1.3162 7.0253
0.0923 3.6446 2.1449 1.0169 0.7390 0.8824 3.4870 3.4623 -1.9356 0.2625 2.0379 5.6458 -1.1604 -0.1621 0.3715 3.4269 3.7189 -0.9938 0.2864 3.3028 6.5252 2.7126 0.1034 3.4131 7.2112 4.0130 3.4916 4.0650 3.2662 9.4561
-0.7414 0.8232 -0.4072 0.1951 -0.4089 -0.4562 0.5429 1.7814 -2.2090 0.1853 0.4622 1.8417 -2.4271 -0.7803 0.4533 2.9000 1.4525 -1.5815 0.7192 4.2350 4.6895 1.9275 0.8433 4.8373 8.6331 2.0290 5.6555 7.1533 7.3598 10.6490
-0.3424 -2.4261 -3.0999 -1.1183 -1.4421 -1.3392 -3.0017 -1.3987 -2.6205 -0.4755 -1.5347 -1.9361 -4.4012 -1.3973 -0.4685 0.5016 -1.3487 -2.6786 0.3580 2.4971 3.0901 0.1573 -0.4609 3.4778 5.3173 3.6275 5.4093 5.2006 5.8796 4.8595
1.0464 -3.4143 -3.9640 -1.5989 -1.3639 -1.3827 -4.2564 -2.4992 -2.4659 -0.3620 -1.9621 -2.6963 -5.2464 -1.0677 -1.1052 -1.6550 -2.6395 -3.3772 0.0746 -0.0643 2.2183 -1.7325 -2.0587 1.3390 1.0995 5.6564 2.5856 0.7505 1.4097 -1.2641
0.1649 -2.6393 -4.5762 -1.9576 -0.6738 -1.8938 -4.2686 -1.4119 -1.9386 0.1806 -2.3684 -2.6583 -4.8819 -0.4525 -1.6600 -3.1681 -3.7050 -3.6837 -0.4296 -1.6198 -0.1809 -4.1953 -2.5167 -0.0627 0.5074 2.2565 -1.7742 -4.6896 -3.6442 -0.0458
1.8341 1.1504 -4.2230 -2.0771 0.6118 -2.1796 -2.8457 -0.5411 -1.6125 -0.0839 -3.0213 -3.9768 -4.8712 -0.3937 -2.8647 -2.5951 -6.0177 -4.6209 -2.2181 -2.0762 -5.6130 -7.9053 -3.4870 -2.4165 2.4289 -6.4911 -9.0569 -12.0533 -10.1753 0.6909
7.2113 6.2707 -2.2209 -1.0737 2.1003 -1.4480 -0.2250 -0.4359 -1.1647 -0.7105 -3.0304 -5.2249 -4.8232 -0.6865 -4.0128 0.5782 -7.3345 -5.3687 -4.1021 -1.1429 -9.6467 -9.7660 -5.1130 -5.0529 4.0934 -11.8527 -13.0747 -15.2765 -11.8350 -5.3549
5.9322 5.2083 -1.9098 -0.1062 2.3550 -1.2261 -0.9034 -0.5808 -0.4908 -0.7570 -3.1915 -5.5154 -3.8247 -1.0842 -4.4678 0.5087 -6.2563 -4.6309 -4.5275 -0.2711 -8.4887 -7.6581 -5.7435 -5.4102 3.3974 -9.7653 -7.7182 -9.7474 -4.0978 -9.0690
-3.3551 -2.2978 -3.8244 -0.2350 1.6100 -1.5237 -5.7092 -0.8082 -0.1586 -0.5753 -3.3440 -4.9373 -2.8499 -1.3642 -4.5842 -6.6959 -4.5724 -3.2488 -4.3440 -2.3238 -5.2214 -4.7493 -5.8262 -4.8557 -1.2713 -5.5872 -1.2904 -2.3217 2.7402 -6.4995
-8.1473 -5.7575 -3.4459 -0.1706 1.5094 -0.5756 -7.3048 -0.1825 -0.0206 -0.5228 -2.1007 -2.4137 -2.2286 -1.0971 -4.1807 -12.2744 -2.9933 -2.1553 -4.2795 -5.2085 -3.3695 -3.4459 -5.9602 -5.3053 -6.3669 -2.9543 -2.5278 -0.3941 0.6548 -3.9831
-3.1614 -0.7657 0.1786 0.8791 2.1211 1.1220 -1.9336 1.8008 0.4741 -0.0289 -0.1333 1.1536 -0.8460 -0.4535 -2.6059 -6.5539 -1.0170 -0.8477 -3.1784 -3.2422 -2.2443 -2.1048 -4.4931 -4.1128 -4.6936 -1.8756 -5.7639 -1.2967 -1.1254 -0.2461
5.0411 5.1126 3.4257 2.0687 2.5167 2.0408 4.1173 3.9735 1.0803 0.8679 1.4432 3.1829 1.0800 0.1856 -0.5266 4.3849 0.9065 0.9088 -0.7703 2.6116 -0.0213 0.4889 -1.1843 0.1827 2.8070 -1.0207 -3.0996 0.6711 4.1534 6.3066
9.2632 5.6145 4.4483 2.7915 2.3763 1.7122 4.9194 5.0303 1.2896 0.9002 2.3875 3.6773 2.0988 0.8982 0.2271 8.0148 2.3607 2.4118 1.0636 5.0229 2.8480 2.8207 1.1173 3.2642 6.4324 1.4748 2.0753 3.5551 6.1603 6.5218
6.5258 2.5523 3.2231 2.4874 1.6286 -0.2466 2.0505 4.1586 1.0484 -0.3198 1.4205 2.9819 1.5602 1.4814 -0.8256 3.7996 2.6284 2.5431 1.0081 2.0006 2.6085 2.4339 0.6085 1.8749 2.6326 0.8437 1.1971 1.5047 -1.2933 -1.4029
0.3136 0.0216 0.4873 0.8865 0.5096 -2.9991 -0.3790 1.9291 0.5425 -1.3818 -1.1432 0.8884 0.0797 1.4608 -1.8957 -0.0670 1.2935 0.9898 0.1885 -1.0201 -1.5942 -0.5258 -0.9248 -0.9969 -1.6418 -5.7354 -4.6594 -3.4406 -6.8505 -5.7877
-1.4763 -0.3314 -0.8570 -0.5055 -0.5174 -4.2041 -0.7515 0.9634 -0.0210 -1.4004 -1.8614 -0.0114 -0.8489 0.9320 -1.6112 -0.2367 0.5322 -0.4158 0.1542 -0.6995 -3.5717 -2.2201 -0.9438 -1.4075 -1.3059 -7.3585 -5.6833 -4.5497 -3.2818 -2.2530
2.9231 0.6040 0.5026 -0.4570 -1.2626 -3.1394 0.1114 1.9955 -0.3936 -0.9642 -0.0049 1.3798 -0.4592 0.3568 -0.7891 1.2187 1.6342 -0.1218 0.6584 1.0628 -0.8544 -0.7294 0.2975 0.3242 1.1413 -0.6495 -1.0743 -2.3114 1.6068 2.0871
6.2569 1.0310 1.5753 -0.1111 -1.3197 -1.3236 0.8644 2.5139 -0.2286 -0.4395 1.1614 1.8621 0.0637 0.0688 -0.3954 2.7301 2.1215 0.5182 0.9126 2.1608 0.8508 0.9406 0.7566 1.7866 2.4418 1.0070 0.2839 -1.1230 3.1048 3.4608
3.7379 0.1667 0.4378 -0.6335 -0.6374 -0.4299 0.8362 1.8086 0.3597 0.1050 0.4547 0.8613 -0.5147 0.1790 -0.2349 3.2194 0.8856 0.2875 1.0979 2.0796 -0.0368 0.7742 0.2645 2.0572 2.4415 -3.7828 -1.9662 -0.4030 4.5694 3.6875
-0.9007 -1.5168 -1.2974 -1.6574 -0.5002 -1.0894 -0.3167 1.2571 0.3354 0.1913 -0.4410 0.5667 -1.7977 0.4731 -0.3108 1.4635 0.1215 0.2207 1.4073 0.9841 0.3844 0.5437 0.5587 1.6950 1.8519 -3.0674 -0.5706 2.1503 5.3392 3.2505
-2.9837 -2.9033 -2.3719 -2.5299 -1.5107 -2.1135 -2.0241 0.6194 -0.6681 -0.0378 -0.7081 0.3062 -2.7606 0.6148 -0.8234 -1.1575 0.5892 0.5487 1.7370 0.3204 1.5838 1.1243 1.8943 1.3430 1.3760 1.5644 3.6463 5.0986 3.4956 2.0702
-1.3362 -2.2897 -2.2686 -2.4896 -2.0675 -1.2756 -1.9969 0.1515 -1.2241 0.2153 -0.0115 0.1169 -2.5502 0.5593 -0.7723 -1.1155 1.4942 0.3596 2.5329 1.7749 2.0224 1.6345 2.8610 1.7669 2.4186 2.9251 5.3724 6.2347 3.7677 2.5169
3.3167 0.5943 -0.1709 -0.9806 -1.1385 1.2434 0.5958 1.7370 -0.5347 0.9888 2.0988 2.7233 -0.9371 0.5754 0.9650 2.3456 3.3501 0.4141 3.9452 4.8515 4.8871 2.9072 3.5255 3.9511 5.7855 6.7913 6.9168 6.7939 9.1342 6.2178
6.8086 2.4717 2.2836 0.8060 -0.2166 2.2385 2.6035 4.1140 0.1017 1.6269 4.0743 6.2067 0.6992 0.8929 3.4030 5.6400 5.5781 1.7419 5.1056 7.3855 9.5983 5.6279 5.1352 7.4925 9.6017 14.5799 11.1316 8.7903 13.9329 11.0360
4.8712 0.5600 1.9999 0.8767 -0.6170 0.4679 1.5472 3.6542 -0.1312 1.8045 3.8767 5.3324 0.6713 1.4082 4.4446 5.9769 5.5316 3.1260 5.6708 8.2072 9.7472 7.3529 7.2054 10.2363 10.9693 14.7711 12.9573 10.7674 13.7244 13.7659
0.4758 -2.6193 -0.4186 -0.6877 -1.3419 -1.4477 -0.4129 0.9196 -0.3752 1.6888 2.3029 1.5125 -0.4002 1.7936 3.6391 4.9973 3.3762 3.3047 6.1850 7.9066 5.6413 6.7666 8.3246 10.8561 9.8632 8.2869 10.4492 10.1889 11.1928 12.7146
-1.6036 -3.7622 -1.9393 -1.8773 -1.3964 -2.0467 -0.9836 -0.2983 -0.0689 1.4465 1.1458 0.0587 -0.6076 1.9504 2.2242 4.7053 2.1008 3.1538 6.4643 7.2816 3.7791 6.2122 8.5286 10.3619 8.6234 7.3709 8.9750 7.9305 9.1639 8.5174
-2.6661 -4.1987 -2.0283 -1.6897 -1.5513 -2.6197 -1.2749 0.7341 0.5417 0.9764 0.4818 0.7153 0.4450 2.1547 1.2199 4.1879 2.2062 3.8110 5.9823 6.5263 3.9891 6.6744 8.4344 10.2772 8.2991 8.2156 8.7833 7.1247 8.8962 5.2359
-3.5142 -5.2361 -1.5886 -1.0032 -2.0626 -3.1689 -1.9895 2.0997 1.2037 0.2643 0.0769 1.0232 1.9700 2.4469 0.7074 3.1825 2.6383 4.9391 5.2520 5.9006 3.2194 7.0155 8.1101 10.3837 8.2297 3.0661 7.0716 8.5740 11.4683 6.2594
-1.1255 -4.8537 -0.4129 -0.6061 -1.8363 -2.5028 -1.8640 3.4660 1.5698 -0.2711 0.4773 2.2188 3.4191 2.5006 0.4023 3.2115 4.1358 5.7366 4.9737 5.8998 4.4809 8.0825 8.0214 9.5078 7.9798 1.7329 7.9642 9.8326 13.8825 8.9606
2.5955 -3.0916 1.2308 -0.2238 -1.0298 -1.0852 -0.9426 5.3927 1.5027 -0.0943 1.8786 4.8486 4.3596 2.4946 0.2920 3.4954 6.6013 6.0274 4.9731 6.3470 8.6328 10.3553 8.4606 8.0165 7.5171 8.6005 12.9102 9.4746 12.9059 9.5787
2.5175 -2.3813 2.1866 0.2363 -0.7201 0.2283 -0.3491 6.8076 1.2766 0.6648 3.3818 6.6512 4.5534 2.7064 0.4174 2.0613 7.9329 5.8657 4.5358 6.0409 10.3723 11.1344 8.0604 6.9519 6.4077 11.0385 14.4064 9.0187 11.1736 9.2328
0.5032 -1.9438 2.4402 0.1486 -0.3764 1.3743 0.1966 6.4342 1.0117 0.9573 3.3843 7.1217 4.2698 2.4516 0.3870 0.6547 7.7270 5.2964 3.1255 4.4144 8.8416 9.3983 5.8845 5.6269 4.6095 6.9377 10.3919 9.0992 10.7713 9.2315
1.3167 0.1340 2.7794 -0.5035 0.4639 1.5838 1.2785 5.0020 0.8078 0.1379 1.7072 7.1850 3.7008 1.3590 0.0670 2.0100 7.1957 4.5915 1.3028 2.8764 7.8332 7.5702 3.6677 3.5481 3.6000 6.0395 7.5093 8.2366 9.7257 8.3108
4.2246 2.1900 3.1752 -0.8270 0.3427 0.2127 2.1394 3.8475 0.6958 -0.8512 0.6033 6.0715 2.5953 0.3723 -0.1355 4.3686 6.1410 3.7510 0.3468 2.7866 6.9822 6.4631 3.0333 2.2389 4.4755 6.9574 7.4195 6.3435 7.9918 7.6445
6.8456 2.0415 2.9075 -0.6599 -1.0826 -1.2383 1.6760 2.8415 0.3262 -0.8554 1.0134 3.3072 0.9402 0.0486 -0.4440 4.5426 4.1833 2.5088 0.3139 3.1891 4.5628 4.8484 2.8163 2.1261 5.1424 4.4458 6.5415 4.6488 6.2648 7.9498
8.4513 0.4188 1.5911 -0.7069 -1.8229 -0.8740 -0.0775 1.4859 -0.2067 -0.2322 0.8009 0.7357 -0.4214 -0.0618 -1.2985 2.8832 2.6107 1.2252 0.1494 2.4737 2.7932 3.1652 1.6131 1.7925 3.1563 3.5463 5.4406 3.0833 3.0518 5.0265
7.3547 -0.8965 0.0379 -0.8647 -1.1922 0.6308 -1.5460 0.4296 -0.3268 -0.0152 -0.6372 0.1485 -0.6491 -0.0639 -1.7084 1.6118 2.3686 0.5811 -0.1139 1.3224 3.2570 2.6950 0.5010 1.7831 1.2233 6.8299 5.9475 2.2464 0.7716 0.3888
3.5537 -1.0412 -0.3228 -0.4352 -0.6744 0.9762 -1.3145 0.3403 -0.0397 -0.3274 -1.2002 1.1776 0.0175 0.2528 -0.5199 1.9026 3.0251 0.8858 0.5438 1.9680 4.0325 3.3075 1.0901 3.8290 3.6028 7.3141 6.2138 4.5298 4.5180 2.8025
1.0394 -0.4946 0.5178 0.3352 -0.7903 -0.2554 -0.5332 0.8368 0.2388 -0.5587 -0.4805 2.6191 0.9459 0.4986 1.1709 3.0039 4.3658 1.9749 1.8705 4.4824 4.5427 4.4172 2.6437 6.4086 7.5649 4.3043 5.8642 8.5811 10.7474 9.3447
1.5996 -0.3467 1.1976 0.7081 -0.5483 -0.9006 -1.0118 1.2266 0.2350 -0.4504 0.3255 4.0397 1.6620 0.1045 1.5198 2.6319 5.9779 2.5275 2.3727 6.1801 6.4602 5.4018 3.0435 6.3680 7.1613 5.8893 7.0475 8.1978 10.2004 8.2069
1.8350 -0.3721 1.2037 0.7887 0.2347 0.3197 -1.5602 1.0095 -0.1949 -0.2570 1.1291 4.7128 1.4010 -0.8400 0.9165 0.5303 6.1137 1.0578 1.5666 5.5654 8.2327 4.9033 1.5721 3.8152 3.4088 10.0317 7.7945 2.3323 3.1407 1.8636
-0.2009 0.3040 1.1060 1.1439 0.6029 1.6862 -0.4299 0.1328 -0.7210 -0.1106 1.5766 3.6318 0.1627 -1.7016 0.8305 -0.2962 4.1464 -1.1687 0.3452 4.0237 6.8240 2.8480 -0.5970 1.5417 1.3646 7.4046 5.3676 -0.8908 -0.9196 0.5603
-1.0851 1.1389 1.2163 1.7995 0.4003 1.7183 0.9367 -0.5870 -0.6267 0.1390 0.8784 1.8526 -0.7134 -1.9144 1.2092 1.3207 2.2798 -1.5671 -0.4483 3.1647 4.5515 1.5412 -1.8303 1.1344 1.7739 2.5416 3.6669 2.7973 1.6681 3.0986
2.1215 1.7644 1.5528 2.4416 0.5387 1.6790 1.1367 -0.3662 0.1850 0.5388 0.1580 1.1062 -0.7139 -1.3874 1.3950 3.2489 1.9893 -0.6497 -0.4994 3.3440 4.3866 1.7069 -1.4369 1.8147 2.9803 3.6459 5.1620 6.0868 5.1696 5.1624
6.4324 2.9461 2.2422 2.8732 1.0458 2.2839 1.6774 0.5486 0.9953 0.9774 0.8694 1.0811 -0.5626 -0.5471 1.6082 4.4733 1.9867 -0.3958 0.0085 4.0684 3.9583 1.4649 -0.2180 2.1953 4.3346 5.1118 5.4303 3.8723 5.5974 7.2935
7.3827 3.8203 3.0418 2.8265 0.9259 1.9359 2.9940 1.4751 1.3353 1.2799 2.1359 1.2894 -0.2489 0.0843 1.9678 5.2613 1.5173 -0.0703 0.4940 4.2307 2.7160 1.0336 0.6246 2.0902 4.4180 4.3045 4.4079 1.8155 4.8048 6.8831
5.4278 2.5370 3.0812 2.1191 0.1688 0.3909 2.8159 1.7828 1.3595 1.0725 2.3976 1.6787 0.4714 0.4270 1.9489 4.6182 1.2269 1.4051 0.8589 3.2787 3.3398 2.0659 1.0554 2.1182 2.6193 7.1141 6.0237 3.4329 4.0455 2.7865
3.5490 0.0144 2.0807 1.1889 -0.2182 -0.3574 0.8698 1.2249 1.0759 0.2749 1.9137 1.0697 1.0042 0.6902 1.4501 2.3492 0.8091 2.6428 1.5490 2.0090 3.8096 3.2823 1.9905 2.2721 1.2460 8.8200 7.1912 4.8391 3.0591 1.0220
2.6229 -0.9952 1.5116 0.8265 0.0512 0.4582 0.1765 0.9167 0.5147 -0.1992 2.2838 -0.0027 1.3688 0.9161 1.3018 1.0154 0.2142 3.0163 2.4647 1.6496 1.8918 3.2201 3.7761 2.4008 1.7256 2.7350 4.6762 5.2382 3.5336 2.8110
2.6918 0.3287 2.6411 1.1976 0.3476 1.6994 2.0605 2.1377 0.3918 0.4335 3.8386 1.3066 2.2021 1.1438 2.0627 2.3411 0.8602 3.7419 2.9991 2.6851 1.2423 3.0822 5.2739 2.9629 2.7612 -2.9577 2.1789 6.4279 5.8835 3.2073
4.1088 2.1115 3.9253 1.5436 0.1391 2.2614 3.7631 3.7130 0.9670 1.2378 4.4118 4.1426 2.8503 1.2350 2.5022 4.0773 2.4903 4.4036 2.6631 3.7150 3.0794 3.1328 4.7605 3.4555 3.0477 -1.3957 1.3024 6.0414 7.0368 2.8566
5.5772 2.3231 3.3170 1.3563 -0.5010 1.8194 2.8459 3.6661 1.3211 0.9275 2.4693 4.3448 2.3835 0.5523 1.1532 3.4908 2.8563 3.4756 1.1686 2.6674 3.5372 2.1935 2.1408 2.1138 2.0770 1.1504 0.4610 3.0701 5.7951 4.0088
5.6369 1.9096 2.0466 1.4307 -1.0391 0.8531 1.0800 2.8963 1.1493 0.0464 0.0738 2.2871 1.6086 -0.6675 -0.7420 1.5345 1.9079 1.5833 -0.9431 0.4258 2.4144 0.7963 -0.6843 -1.0191 0.4613 0.7299 0.8890 0.9893 4.0452 4.5012
6.0246 3.3362 2.3924 2.5978 -0.9635 0.1804 1.0327 3.4632 1.2454 -0.2215 -0.2700 1.8068 1.4712 -0.9513 -1.0782 0.4552 1.4828 0.2958 -2.2876 -0.2412 2.3372 -0.2500 -2.2885 -3.5381 -0.0160 1.4720 2.3499 0.6372 2.1285 4.7432
8.6594 5.4355 3.4211 3.9644 -0.1647 0.2106 1.5414 4.6689 1.5751 0.1079 0.6854 2.3454 1.3515 -0.2264 -0.3388 0.2212 1.3282 -0.3593 -2.2430 0.6135 1.8961 -1.8243 -2.9255 -4.2650 0.1108 3.1903 1.7426 -0.3695 -0.4260 5.0817
10.9183 4.7652 2.8579 3.9961 0.7930 0.7098 0.5054 4.3815 1.2940 0.5913 1.0994 0.9524 0.5777 -0.0647 0.2153 -0.0669 0.2580 -0.9008 -1.4573 0.9263 -0.7346 -4.0143 -3.0535 -3.9677 -1.5341 1.4878 -0.3920 -2.3001 -2.1892 1.2495
9.1453 1.9209 0.8980 2.5731 0.8154 0.4988 -1.1555 2.4307 0.4910 0.8815 0.5394 -1.3341 -0.6957 -0.6483 0.7379 -0.3260 -1.1771 -1.3102 -0.6791 0.4833 -3.3742 -5.3158 -2.8044 -3.0173 -3.6324 -1.8792 -2.1432 -4.0076 -2.5678 -4.6923
4.2624 -0.1195 -1.1716 0.5383 -0.3864 -1.2705 -2.0946 0.0883 -0.1618 0.4034 -0.8967 -2.8677 -2.2461 -0.9201 0.9808 -0.5491 -2.7425 -1.7838 -0.3119 0.2321 -5.1268 -5.4309 -2.6199 -1.9020 -3.4775 -4.4668 -5.1741 -5.1418 -2.8460 -5.9425
0.1200 -1.5985 -3.1085 -1.3970 -1.5480 -2.8508 -3.0982 -2.0437 -0.6590 -0.6069 -2.6681 -5.2325 -3.5069 -0.9621 0.0432 -1.2842 -4.9590 -2.5672 -0.6689 -0.1015 -7.9050 -5.3889 -2.7093 -2.0463 -2.9232 -9.7228 -9.2125 -5.6288 -3.0689 -4.5436
-1.2793 -3.7041 -4.4305 -2.3142 -1.6015 -2.4916 -4.5781 -3.7173 -1.0256 -1.0863 -3.7281 -8.1298 -3.6657 -1.2037 -1.5689 -2.5910 -6.2700 -3.1549 -1.6321 -1.3789 -9.9488 -4.9769 -2.8307 -3.6320 -4.5898 -15.2446 -9.6465 -6.1714 -3.0385 -4.8850
-1.4460 -5.2910 -4.4996 -1.8745 -1.2475 -2.2991 -5.5956 -4.1341 -0.7064 -1.0302 -4.2160 -8.2474 -2.9396 -1.1980 -2.6176 -3.9715 -4.9811 -3.0044 -2.4785 -3.4584 -7.6564 -3.2735 -3.2415 -5.1406 -6.9747 -12.5683 -5.6268 -7.0532 -4.1296 -5.0610
-2.2599 -5.7907 -4.2884 -1.5048 -1.6213 -4.1707 -6.2430 -3.2123 0.1797 -1.2402 -5.0953 -6.1918 -2.4568 -1.0735 -3.1107 -5.2397 -3.0783 -2.6551 -2.8886 -5.2646 -4.0158 -1.6265 -4.5549 -5.8213 -8.1163 -5.7538 -2.5714 -6.7804 -6.0758 -4.7868
-1.9943 -5.8186 -4.7326 -2.1038 -2.3981 -5.3803 -7.2833 -2.2918 0.5289 -1.5078 -5.9405 -5.9186 -2.6784 -1.6330 -3.5173 -6.4049 -3.2736 -3.0174 -3.5156 -5.7593 -4.5733 -2.6210 -6.5960 -6.4632 -8.7706 -6.2820 -4.1998 -6.1340 -7.6731 -7.6666
1.6673 -4.4191 -4.3867 -2.2755 -2.5102 -3.8410 -7.6108 -2.0229 0.0633 -1.1887 -5.1623 -7.1228 -2.8087 -2.4453 -3.0922 -6.6770 -4.6808 -3.8172 -4.5164 -4.4514 -7.6092 -5.5678 -8.2642 -7.3267 -9.3847 -11.8616 -7.9985 -7.6807 -10.0244 -13.1842
6.6955 -0.9614 -1.9070 -1.3917 -2.0040 -1.9799 -5.4650 -1.7359 -0.3214 -0.5096 -2.2017 -6.8124 -2.3187 -2.5674 -1.0821 -4.8409 -5.4466 -4.1908 -4.7484 -1.5697 -8.7995 -7.3329 -8.7782 -6.9067 -8.1220 -14.2647 -10.7878 -9.3420 -12.1021 -15.1930
9.7965 2.2460 0.8858 -0.8161 -1.6351 -1.3639 -1.9188 -1.3650 -0.2728 0.0994 1.1644 -5.4941 -2.0490 -2.4583 1.1974 -1.3137 -5.8129 -4.2621 -3.6894 1.6182 -8.7862 -7.4012 -8.5650 -4.3293 -4.4883 -14.4621 -12.6033 -8.2117 -10.2842 -10.8512
10.3433 2.9114 1.5041 -0.7910 -1.3197 -0.6111 -0.0227 -1.1930 -0.2467 0.5753 2.2977 -4.3688 -2.4441 -2.7793 1.8517 1.5534 -5.4514 -4.3324 -2.3953 3.3657 -7.4704 -6.7320 -8.0799 -1.2752 -1.1439 -12.1014 -11.6400 -6.5191 -5.5883 -5.4229
8.4656 1.4339 0.2324 -0.5506 -0.7070 0.0671 -0.8441 -0.9669 -0.3783 0.6457 0.7915 -2.4866 -2.6329 -3.0609 0.9597 1.9212 -3.2771 -4.0019 -1.8815 2.9960 -2.6234 -4.6115 -6.9912 0.3579 0.2121 -3.3967 -5.6495 -6.1358 -2.0521 -3.3466
4.4362 -1.0434 -1.4744 -0.6666 -0.4162 -0.9213 -3.3336 -1.2925 -0.3978 -0.0373 -1.6723 -1.0954 -2.3744 -3.0996 -0.5045 -0.4124 -1.1269 -3.4364 -2.4010 1.0373 1.8835 -1.7685 -5.7239 0.0822 -0.1114 3.6762 -0.4262 -6.0519 -1.3614 -3.3891
0.0657 -4.1395 -3.3025 -1.5519 -1.1364 -3.0005 -6.7036 -2.8707 -0.1796 -1.2133 -4.1330 -2.5904 -2.0761 -3.3057 -2.4294 -4.7439 -1.1902 -3.1722 -3.7464 -1.8372 0.9178 -0.7005 -5.2403 -1.9314 -2.1303 -0.5658 -2.1038 -5.6398 -2.7663 -4.3112
-2.5836 -6.9646 -5.0330 -2.2796 -2.3793 -4.5662 -9.9386 -4.2569 0.0968 -2.1251 -6.3299 -5.0911 -1.4820 -3.3402 -4.5422 -9.1091 -1.9121 -2.8585 -5.0050 -4.7202 -2.2393 -0.9540 -5.1103 -4.3008 -4.5648 -8.7788 -5.9057 -4.4198 -3.2412 -4.9699
-2.0673 -7.9357 -5.8364 -2.6469 -3.1777 -5.0348 -11.2296 -4.0670 0.0811 -2.2775 -7.3349 -5.8978 -0.9761 -2.7282 -5.6880 -10.7541 -1.9357 -2.3728 -5.2390 -6.3334 -3.3668 -0.8777 -4.8334 -5.2540 -5.3492 -10.8658 -6.9565 -3.7061 -2.1207 -4.2684
1.5945 -6.8521 -5.4130 -3.2750 -3.2686 -4.5373 -10.0776 -3.2403 -0.2869 -1.9991 -6.6346 -5.9623 -1.3816 -1.9372 -5.2524 -8.6733 -2.4061 -2.0378 -4.3082 -5.7412 -3.9550 -0.9626 -4.6321 -4.7628 -5.1068 -9.2172 -7.2633 -5.3153 -3.1530 -4.6358
4.9657 -5.3836 -4.2187 -3.8050 -2.8763 -3.9074 -7.9131 -2.3728 -0.4387 -1.8650 -4.9691 -5.8327 -1.4733 -1.1469 -3.8079 -4.5236 -2.5732 -0.9513 -2.3445 -2.7484 -4.2328 -0.6927 -3.3160 -3.0889 -4.3884 -7.7025 -5.6832 -6.1433 -5.3641 -6.4917
5.7101 -4.5086 -2.7350 -3.4637 -2.0263 -3.6959 -6.3717 -0.9471 0.1648 -1.7280 -3.1906 -4.2998 0.0770 0.0773 -2.0192 -1.3141 -0.7782 1.2526 -0.0842 1.1902 -2.7412 1.0755 -0.5053 -0.2049 -1.8635 -6.2181 -1.5977 -4.0937 -3.9703 -5.5468
6.3801 -3.6230 -1.4883 -2.5557 -1.0019 -3.1537 -6.1201 0.0551 0.9817 -1.3746 -1.9161 -2.5032 1.5502 0.8974 -0.5031 -1.3511 0.8712 2.1389 0.5146 2.7264 -1.5320 2.1019 0.3336 1.5323 0.6817 -5.9367 -1.3612 -3.7079 -1.6910 -2.1939
6.5984 -2.6160 -1.1594 -1.7962 -0.5839 -2.1802 -6.2069 -0.3420 1.0171 -1.3217 -1.9382 -2.3004 0.9879 -0.1534 -0.4361 -3.6663 -0.0323 0.0203 -1.5947 0.2646 -2.0002 0.2016 -2.9063 -0.5495 -0.5277 -6.7570 -5.2551 -7.1448 -4.1505 -2.6121
3.1196 -1.6828 -1.6482 -0.8807 -0.6182 -1.6113 -5.0902 -0.8174 0.4889 -1.6463 -3.2450 -2.7175 -0.8576 -2.2679 -2.0504 -4.8226 -1.9143 -3.0391 -4.6468 -3.2029 -2.4499 -3.0365 -6.9670 -4.8139 -4.3267 -7.0632 -6.7053 -10.6514 -9.0869 -7.8070
0.5208 -0.4169 -2.0553 0.6235 -0.0628 -1.3170 -3.6834 -0.9417 0.2271 -1.7319 -4.6166 -3.0215 -2.8158 -3.4067 -3.6892 -4.0916 -3.2846 -4.9703 -6.4559 -4.4418 -3.1633 -6.1266 -8.9219 -7.7057 -6.6999 -7.7423 -7.4610 -12.1664 -11.1727 -11.5590
3.5730 0.1862 -2.3491 1.5043 0.6378 -1.5947 -4.4351 -2.2637 0.1292 -1.8811 -5.3997 -4.4208 -4.8018 -3.6068 -4.3868 -4.1657 -5.0578 -6.3383 -7.0895 -4.4321 -5.3926 -9.0876 -9.6873 -8.5392 -7.2542 -9.0570 -11.4470 -12.3391 -10.2109 -10.7487
6.8399 -0.9894 -2.8997 0.6216 0.2099 -3.2126 -6.5442 -3.8763 -0.0245 -2.7029 -5.7888 -6.0988 -6.0403 -3.8457 -4.7764 -5.4608 -6.5080 -7.3230 -7.2650 -4.8387 -7.0270 -10.4083 -9.9390 -8.3211 -7.1989 -8.5007 -13.0673 -10.8518 -8.4390 -8.5586
7.9245 -1.6150 -2.6501 -0.5359 -0.5638 -4.0483 -6.7608 -2.9194 0.0701 -3.2359 -5.2059 -5.5232 -5.3462 -3.6073 -4.6121 -5.2246 -5.6102 -6.8253 -6.5313 -4.5129 -5.9180 -8.8733 -9.1231 -7.1120 -5.8089 -4.8984 -8.8996 -7.8784 -6.0974 -6.5560
11.4960 0.2459 -0.9157 -0.1796 -0.1652 -1.5729 -4.6228 -0.1565 0.2760 -2.2094 -3.0331 -3.1568 -3.4011 -2.6321 -2.9293 -2.7709 -3.3893 -5.2324 -4.7002 -2.5462 -3.5171 -6.2818 -7.8044 -4.8614 -3.3892 0.2008 -4.6461 -5.3233 -2.9829 -4.0153
14.0524 1.8824 0.8274 0.8961 0.9524 2.1302 -2.1734 1.1989 0.4970 -0.0968 -0.1045 -1.2938 -1.6890 -2.0021 -0.1845 -0.1818 -1.8807 -3.7051 -2.4739 -0.0242 -1.4844 -4.0253 -6.0886 -1.9886 -1.7412 4.1997 -2.3443 -3.4100 0.3588 -2.8978
8.7744 1.1623 1.5685 1.3950 1.6831 3.5554 -0.3580 1.0262 1.1302 1.6496 2.2923 0.2357 -0.0501 -1.7249 2.2895 1.1805 -0.1890 -1.8501 -0.3062 2.1999 0.5227 -1.2613 -3.1396 1.2241 -0.3599 4.3730 0.9138 -0.0200 3.8026 -3.7066
1.4603 0.2794 2.0619 1.6485 2.0571 2.8751 0.5511 1.1723 1.6796 2.1657 3.3454 2.2647 1.7411 -0.9660 3.5533 1.1971 2.4810 0.3070 1.1090 3.6607 2.1266 1.4127 -0.4740 3.7679 1.8862 0.2517 2.4417 4.1275 6.2069 -2.7478
2.1575 0.9043 2.7329 2.2269 2.4216 2.0755 -0.1088 1.6084 1.3342 1.6110 2.8030 3.2526 2.4519 -0.5846 3.2391 0.4099 4.3351 1.0476 0.6799 3.5313 2.4575 2.2246 -0.6216 4.0757 3.5327 -3.9101 0.0416 5.1719 5.4310 0.7738
9.0751 1.8469 3.3552 2.8316 2.5584 1.4261 -1.5815 1.6686 0.7270 0.7353 1.5447 2.3405 1.9029 -1.6492 1.7728 0.0791 4.6713 0.1095 -1.2658 2.0264 2.7998 2.1552 -2.7495 2.1930 3.3268 -2.8760 -0.0275 2.7780 2.3748 2.6748
12.9983 2.4097 3.8132 2.9805 2.1700 0.0842 -1.9528 1.6547 0.6213 -0.1055 0.6138 1.3183 1.2245 -3.0189 -0.0157 0.5606 4.4327 -0.9816 -3.2173 0.5056 3.6635 2.4811 -4.3974 -0.4190 2.1467 1.2460 3.6586 0.0073 -0.2842 0.9165
11.1111 2.8573 3.5085 2.5201 1.5317 -1.6694 -1.2468 1.2890 0.5475 -0.9631 -0.3272 0.7113 0.1279 -3.3243 -1.4211 0.8753 2.9582 -2.0503 -4.4701 -0.3714 2.5812 1.3593 -5.3390 -2.6455 0.7770 1.0141 2.9624 -1.6713 -1.9339 -1.0268
7.8037 2.3914 1.9123 1.4055 0.9343 -2.5181 -1.2322 -0.3556 0.1122 -1.4069 -1.5485 -0.8961 -1.9709 -3.0322 -1.8245 0.4860 -0.2134 -3.5378 -4.9511 -0.9138 -0.3435 -1.6538 -6.2894 -3.6612 -0.4707 -2.6757 -2.0014 -1.6825 -1.6151 0.1848
5.8950 0.6693 0.0478 -0.0901 0.1542 -1.9301 -2.0564 -2.8501 -0.4463 -1.0396 -1.7643 -2.9807 -3.8175 -2.9038 -1.2114 -0.3407 -2.9428 -4.3541 -4.3858 -1.0737 -1.6563 -3.5937 -6.5983 -2.9631 -0.7966 -2.2023 -2.9820 -0.7163 1.2983 2.8582
4.9222 -0.3324 -0.3645 -0.7552 -0.4602 -0.3656 -1.8736 -4.1919 -0.8466 -0.2237 -0.1671 -3.5957 -4.0361 -2.5474 0.0025 -0.4290 -3.4080 -3.4196 -2.7107 0.2021 -1.1930 -3.4252 -5.0403 -0.8152 0.5435 0.7836 -0.4319 -0.5395 3.8044 4.2823
4.9164 1.0789 1.0480 0.4479 0.0161 1.6893 0.1968 -2.8550 -0.6256 0.7685 2.1839 -2.1829 -2.4976 -1.3699 1.8004 1.5539 -1.8406 -1.1836 -0.3551 3.3358 -0.7517 -2.4899 -1.7186 2.1647 3.3716 0.7979 1.2725 0.7334 4.5141 4.8050
6.0713 3.7255 3.1037 2.5418 1.2769 3.4331 2.7123 0.2295 0.3501 1.7997 3.9636 0.5872 0.0126 0.1376 3.3964 3.9508 0.5620 1.0012 1.5071 5.8232 0.3633 -1.1993 0.9705 4.3868 5.7427 1.7536 2.6724 3.4539 4.8218 4.0850
6.8288 5.0138 4.1186 3.5681 1.9704 3.4437 3.5917 2.1731 1.1372 1.9262 4.0578 2.6648 1.6811 0.7269 2.9295 3.8269 1.9654 1.7757 1.3847 4.5947 1.3784 -0.3687 0.6420 3.6767 4.9813 4.3413 2.2138 2.1485 3.0091 0.0490
5.4680 3.5834 3.1677 3.0574 1.5041 1.1734 2.0872 1.3912 1.0495 0.4862 1.6534 1.8067 1.3872 0.0190 0.3928 1.8647 1.7027 1.1142 -0.4133 0.8738 0.0477 -0.8925 -1.5384 0.4546 1.2872 1.0169 -1.3520 -2.6527 -1.3937 -5.0051
3.8830 0.3515 1.2496 2.1765 0.4122 -1.4497 -1.2907 -0.6060 0.9644 -1.3101 -1.5712 -0.5455 0.7266 -0.8455 -1.9515 -0.6241 1.5862 0.5917 -1.7426 -1.6306 -1.0270 -0.8173 -2.4903 -2.3515 -2.1833 -3.7580 -2.6278 -4.0073 -3.3062 -5.5523
5.3272 -2.9018 0.1029 1.8283 -0.4976 -1.9799 -5.4980 -1.7856 1.6973 -1.8970 -2.6901 -1.1315 1.5338 -0.7791 -2.9639 -4.6994 2.8006 1.2181 -1.7887 -2.3415 1.6849 1.6265 -1.4408 -3.3001 -3.8603 0.7075 0.8486 -1.8391 -0.7306 -2.7327
6.7141 -5.1093 -0.0915 1.6125 -0.9203 -1.2951 -8.1601 -1.7918 2.4085 -1.6702 -2.1283 0.0465 3.0835 -0.1315 -3.2640 -8.3650 4.3380 2.3094 -1.6534 -3.0945 5.4522 4.3288 0.1042 -3.4285 -5.0878 7.0171 4.4310 -0.1491 0.9914 -3.3610
3.4302 -4.8891 0.2341 1.1812 -0.9915 -1.8641 -6.5897 -0.7972 2.2345 -1.8671 -2.2949 1.6449 3.9398 0.2441 -3.2439 -7.3364 5.3435 2.7814 -1.9625 -4.2455 6.3696 4.6304 0.5149 -4.0509 -6.5220 4.0209 4.4505 0.1549 -2.4148 -6.7543
0.4300 -1.4411 1.2610 1.1298 -0.8770 -2.9750 -2.0542 0.5345 1.7403 -2.2102 -2.9924 3.3166 3.7377 0.1082 -3.1372 -3.1352 5.3424 2.1165 -2.5603 -4.9510 5.0487 2.7487 -0.6586 -5.0520 -6.2431 -1.8147 0.4711 -1.1298 -6.6641 -4.4714
3.0547 2.2054 2.0725 1.4008 -0.8533 -2.6438 0.7864 0.4195 1.5710 -1.7093 -2.8824 3.4214 2.5493 -0.5000 -3.2615 -0.5168 3.7211 0.6895 -3.1550 -4.6282 3.1571 0.4264 -1.6706 -4.9241 -2.9935 -3.0910 -4.3408 -1.9882 -4.4327 3.6858
5.6222 2.3705 1.3245 1.1697 -1.0318 -1.6463 0.3321 -1.1928 1.6299 -0.7896 -2.3613 1.0796 1.2309 -1.2139 -3.1958 -0.0110 1.3413 -0.2313 -2.9850 -3.1976 1.2923 -1.0182 -0.4893 -3.2443 0.4130 -2.7815 -4.2513 0.5233 1.9344 7.0228
4.3870 0.3590 0.0968 0.8241 -1.1058 -1.4366 -1.0574 -1.6535 1.7831 -0.6576 -2.0504 -1.1071 1.0467 -1.1979 -2.7559 -0.2105 -0.1432 0.0697 -1.9557 -1.8293 0.1595 -1.3921 1.6248 -1.9032 0.4731 -1.7011 0.1234 3.5224 3.1974 1.3849
5.5638 -0.3219 0.3224 1.2567 -1.0346 -1.6562 -1.8735 -0.0757 1.8367 -1.2260 -1.6203 -1.5375 1.6252 -0.5338 -2.5582 -0.8028 -0.4713 0.7971 -1.3784 -1.6114 -0.4171 -1.3259 1.9079 -1.7907 -0.9978 0.9446 2.4960 3.5718 -0.4255 -4.1474
10.8466 1.3287 1.9061 1.8203 -1.1304 -1.5734 -1.6134 1.4236 1.5552 -1.3904 -0.6861 -1.0907 1.7800 -0.4813 -2.3586 -0.3417 0.0095 0.9200 -1.8416 -1.0388 -0.7368 -1.1703 0.6817 -1.2472 0.6678 3.1094 2.6880 3.5765 -0.1030 -1.5330
13.8297 4.5864 3.8165 1.5257 -1.3400 -1.0776 0.7284 1.8134 1.2432 -0.9418 0.8957 0.7381 1.6296 -1.2425 -1.3774 2.2331 1.2359 0.2980 -2.3373 1.6329 0.4521 -0.7970 0.1765 0.4374 5.5104 6.7879 4.8007 6.3087 6.3941 6.5720
12.9516 7.5046 5.3673 1.0373 -1.2833 -0.2497 3.7860 1.9112 1.3366 -0.4770 2.7824 3.6529 1.7158 -1.5180 -0.0339 4.6575 2.4951 -0.4065 -2.0465 4.8068 2.9154 -0.1561 0.6202 1.8879 9.1415 12.4707 7.7143 10.1544 13.2891 12.4744
12.3269 7.5325 5.8705 1.2822 -0.8508 0.6799 4.4034 1.8310 1.7305 0.0693 4.0813 4.4627 1.9704 -0.8736 0.9353 4.8756 3.0854 -0.2344 -1.0389 5.9883 4.1170 0.7036 0.8434 2.5596 9.0679 12.9976 8.4973 12.8956 15.2918 11.7330
12.8787 5.3071 5.3839 1.5182 -0.5173 1.1824 3.0136 1.2983 2.0434 0.8706 4.3742 3.0648 2.1906 -0.2416 1.6556 4.3927 3.6109 0.8430 0.2709 5.5045 3.9836 1.5899 0.6484 3.3977 7.3226 7.5799 7.7881 13.2455 12.1592 7.7887
12.4098 3.7181 4.7395 0.8745 -0.9441 0.6029 2.1466 0.7655 2.0541 1.0837 3.9013 2.8695 1.9496 -0.1480 2.1752 4.6031 4.6155 1.5736 1.1180 5.1279 4.6354 2.2461 0.5179 4.6761 7.1204 4.4492 6.8140 11.6040 9.1094 7.4083
10.9837 2.7208 4.0129 0.0505 -1.9330 -0.8600 0.9663 0.4542 1.8612 0.2205 2.8236 3.8197 1.1512 -0.4755 2.0603 4.1340 5.5173 1.3331 0.8394 5.4509 6.5321 3.0952 0.7486 5.4296 8.3324 6.3610 7.2974 10.4004 9.6549 9.2872
11.3928 1.2504 3.2343 -0.1038 -2.1745 -1.5270 -1.4981 0.4647 1.7761 -0.5087 1.9482 4.0682 0.8146 -1.1177 1.5563 2.8769 6.1050 0.9508 0.1084 6.3481 9.4153 4.6335 1.6237 5.6402 9.0533 10.9355 11.3795 10.9067 10.9446 8.4354
13.9851 1.2994 3.5406 0.2873 -0.9182 -0.1145 -1.8967 1.3811 1.8372 0.0798 2.8968 4.8558 1.3984 -1.5493 1.6434 3.4482 6.6066 0.9422 0.4195 7.9127 12.0270 5.7094 2.9906 6.9074 10.3036 15.3321 15.1708 11.6829 11.3939 8.5699
14.6662 3.9832 5.1098 0.8681 0.5360 2.1722 1.7948 2.7460 1.6913 1.3085 5.4571 6.5068 1.8087 -1.1490 2.4729 6.2889 6.5024 1.0178 1.7732 9.6037 11.2273 4.9965 3.8659 9.2056 13.1942 14.0721 12.5129 10.6397 11.8487 12.6764
12.4545 6.9514 6.4449 1.4717 0.6718 3.3493 6.0049 3.1847 1.2794 2.0037 7.1783 6.7511 1.5155 -0.3228 3.3330 8.8441 5.6814 1.2684 2.7146 10.4359 7.3665 3.5677 3.7574 10.1849 15.2643 7.2638 6.3540 7.8139 10.3726 14.5569
12.0546 8.5938 6.6976 2.0617 0.2663 3.4705 7.1597 2.7668 1.0252 2.2644 6.9371 5.4887 1.1654 0.0574 4.0279 9.7028 4.8751 1.6642 2.6989 10.5635 4.7278 2.7364 3.4931 9.2458 15.2838 3.0611 3.5286 6.1903 8.0250 13.0713
13.5334 8.4030 5.5742 2.3295 0.5889 3.3690 5.2102 2.2128 0.9856 2.4736 5.4904 3.8137 0.8212 0.0347 4.3761 8.4912 3.7819 1.5093 2.2825 10.0867 3.6262 1.6357 3.6483 7.8011 14.3046 2.8206 3.4833 7.1492 8.8586 12.5730
11.3249 4.9428 2.3931 1.5441 0.7678 2.2571 1.0058 0.9434 0.8057 2.1723 2.8240 0.7703 0.1580 0.2065 3.4470 4.3970 1.4370 0.8091 1.6157 7.2407 0.5038 -0.6570 3.3340 5.6695 10.5805 -0.0894 1.5760 6.5078 9.0946 8.8814
5.9013 -0.9009 -1.9049 -0.1088 -0.3302 -0.6380 -4.1622 -1.5304 0.5759 1.0162 -1.1777 -3.7114 -0.4825 0.3957 0.9205 -1.4846 -1.7842 0.2038 0.3117 1.3868 -4.4948 -3.6464 1.5333 2.0397 2.9848 -5.8866 -3.1912 0.7742 2.8813 -0.3484
2.9312 -5.0052 -4.6003 -1.2963 -1.8273 -3.7543 -7.7354 -4.3223 0.5056 -0.4845 -4.6923 -7.1640 -0.9928 0.0578 -2.1396 -5.9728 -4.4630 -0.4532 -1.7004 -4.2099 -7.6894 -6.3270 -1.0315 -1.7247 -3.7790 -8.1055 -7.3782 -5.5463 -4.6705 -5.2716
3.0980 -5.3215 -4.6122 -1.5586 -2.4123 -5.0272 -8.2744 -6.1310 0.4383 -1.6751 -5.8320 -7.9955 -1.6947 -0.4105 -4.1992 -7.3855 -5.5577 -1.2629 -3.5358 -6.1429 -7.9327 -7.4509 -2.3953 -3.9683 -5.7435 -5.4524 -7.7688 -5.9129 -5.5587 -3.0825
3.7170 -3.8375 -3.2282 -1.3237 -2.0287 -4.7223 -7.1887 -5.8452 0.6168 -2.4237 -5.1588 -6.7406 -1.9618 -0.3970 -4.3239 -6.6226 -4.7644 -1.2406 -4.0262 -5.0292 -6.4291 -6.1581 -1.7750 -5.0127 -5.3916 -2.1545 -4.9009 -1.7108 -2.4377 -3.6995
5.8853 -2.5004 -1.2451 -0.2165 -1.0970 -4.2215 -6.2456 -3.2466 1.3821 -2.6566 -3.8675 -4.3502 -0.9162 -0.1799 -3.0485 -5.0379 -2.4488 0.0825 -3.3494 -3.3961 -3.2106 -3.2117 -0.4217 -5.4385 -5.5286 0.2628 -0.8878 0.5990 -2.7379 -7.9262
11.5922 -0.7313 1.5534 1.7855 0.0917 -3.2362 -4.9703 -0.1372 2.0763 -1.8880 -1.5259 -1.7987 0.5769 -0.0688 -1.7750 -3.1277 0.1707 1.4257 -2.6441 -1.9955 0.5703 -0.7428 0.1398 -4.8609 -4.7281 1.2316 1.5619 -0.5489 -5.7416 -7.0924
16.7823 2.0657 4.0995 3.0921 0.9267 -1.1535 -2.5152 1.0778 1.9912 -0.4611 1.4460 -0.0350 0.8408 -0.0925 -1.1621 -1.3815 1.4705 1.2269 -2.5009 -0.5986 1.9824 -0.3931 -0.5625 -3.9871 -2.4267 -0.5472 0.0937 -1.7134 -5.7602 -2.4589
15.8644 4.5716 4.6715 3.0940 1.0175 0.5009 -0.2014 0.3640 1.4252 -0.0502 2.2682 0.7783 -0.1233 -0.7651 -1.3357 -0.7302 0.9793 -0.5028 -3.3698 -0.1752 1.6336 -1.8382 -2.3966 -4.9727 -1.5680 -0.9492 -2.1257 -2.0440 -4.0187 -1.8286
11.7362 5.9837 3.9408 3.2838 1.0826 0.5218 0.6427 -0.1097 0.8944 -0.9952 0.3103 0.9176 -0.8584 -2.2104 -2.3933 -0.9032 0.0269 -2.3199 -5.4068 -1.2867 1.6761 -3.7555 -4.7586 -7.7192 -2.8097 1.8147 -1.1671 -3.0007 -5.0582 -4.4369
11.5312 7.3222 3.8235 4.0565 1.7402 0.2488 0.8555 0.7553 0.6698 -1.4666 -1.3564 0.3610 -0.8209 -3.3537 -3.5815 -0.5748 -0.2948 -3.2291 -7.2467 -2.4400 -0.0310 -5.7471 -6.5240 -9.1276 -2.4883 -0.5620 -1.5363 -3.8147 -6.4642 -4.1674
15.4514 8.5383 3.9055 4.1029 2.2050 0.3933 0.6557 1.4533 0.6924 -0.9249 -1.5491 -1.1499 -1.0940 -3.5775 -4.1593 -0.3660 -1.0126 -3.8506 -7.8212 -2.9983 -4.8176 -8.0995 -7.5724 -8.2834 0.1938 -8.8890 -7.3455 -4.4224 -5.2919 -0.9866
18.9776 7.8737 2.7477 3.4290 1.8373 -0.3922 -1.4158 0.4847 0.3762 -0.9752 -2.2846 -3.5823 -2.3253 -3.6656 -4.8342 -2.0104 -3.1833 -5.0202 -8.1736 -4.2614 -8.7092 -10.4217 -8.8776 -7.9340 0.8947 -12.2868 -12.9102 -6.3297 -5.0397 -0.7907
19.7491 5.2869 1.0094 3.0264 1.3224 -2.2906 -4.6897 -1.0274 -0.2558 -2.0648 -3.8304 -5.6708 -3.3983 -4.0696 -6.0735 -4.3788 -5.2341 -6.1563 -8.8989 -5.5301 -9.1716 -11.6624 -9.7759 -8.8264 -1.3924 -10.7049 -13.5086 -7.4338 -6.3790 -4.7798
17.2581 2.9608 0.0053 2.5822 1.0521 -3.6260 -6.3543 -1.1918 -0.1780 -2.8844 -4.4532 -5.5377 -3.2173 -3.8982 -6.5825 -4.8953 -5.0092 -6.0477 -8.5584 -4.3130 -7.6384 -10.9023 -8.2649 -8.0629 -1.6314 -11.6294 -11.4834 -4.4695 -4.2704 -5.9583
13.1551 2.1693 -0.0872 1.8437 0.5570 -3.5079 -5.6496 0.0477 0.7972 -2.7778 -3.6983 -2.7806 -2.0041 -2.4447 -5.3031 -3.5124 -2.5377 -4.2471 -6.2852 -1.0677 -3.7922 -7.6796 -4.5158 -4.4437 2.3612 -9.3276 -6.7364 1.3632 1.6258 -0.9145
10.6280 2.5646 0.9184 1.8187 -0.1869 -2.8135 -3.6716 1.7843 1.6319 -2.2607 -2.0552 1.6045 -0.3043 -0.5908 -3.1394 -1.4563 0.9444 -1.4395 -3.3495 1.7182 3.3848 -2.7497 -0.7841 -0.2179 6.8520 2.6376 1.9320 6.6100 6.5915 4.7196
10.4533 3.8296 2.9810 2.6681 -0.5827 -2.5996 -1.0221 3.1640 1.7618 -1.8634 -0.0229 5.7134 1.0681 0.1956 -1.4437 1.2203 3.8486 0.6845 -1.4442 3.7075 9.6570 1.1393 1.3820 2.5987 9.2809 13.2240 8.0434 9.2361 9.2261 7.3631
12.7325 5.6135 4.8387 3.3268 0.0504 -2.2398 1.1472 3.4416 1.5292 -1.5164 1.5892 6.7407 1.0966 -0.1671 -0.2922 4.0479 4.4610 0.7924 -0.8997 5.4933 9.8051 1.6910 1.7750 3.5750 10.2031 11.9812 6.7542 9.9154 10.5857 9.1502
16.8009 6.4750 5.1667 3.2216 1.5419 -0.7118 1.0849 3.0505 1.2964 -0.9066 2.2064 4.5974 0.4136 -0.5443 0.6316 4.8794 3.2293 -0.3307 -0.9950 6.0529 6.5434 0.4188 1.0617 2.7564 9.3406 6.8454 4.4393 10.3681 10.0614 9.8174
17.8809 5.3521 3.9423 2.5066 2.1638 0.8113 -0.7150 2.8700 1.1179 -0.2199 1.7449 2.8996 0.5577 -0.5643 0.9309 2.8879 2.4156 -0.8864 -1.3174 4.6163 5.8390 0.0347 0.2065 0.8938 6.3206 7.2623 5.7345 8.9759 7.0437 6.9736
15.8206 4.0297 2.8194 1.9772 1.2430 1.2553 -1.5624 2.2407 0.9136 0.2083 1.0355 2.3902 0.8112 -0.8986 0.5222 0.8548 2.0220 -0.9670 -2.0033 2.4440 5.9528 -0.3906 -0.9150 -0.8963 2.8709 7.6385 4.8321 3.7109 2.1030 2.2277
16.5883 4.7596 3.2478 2.3132 0.8590 2.0187 -0.3189 0.6605 0.5090 0.5803 1.5814 0.3212 -0.6236 -1.6773 0.2365 1.0950 0.2136 -2.1377 -2.9049 1.1854 1.8014 -2.9657 -2.9408 -2.3710 0.8374 0.5432 -1.6118 -1.9615 -2.7258 -0.1909
16.3135 5.9876 3.7122 2.6280 1.8140 3.0866 1.1739 -0.2601 -0.0486 0.9683 2.7012 -2.1444 -2.7127 -2.1726 0.4600 1.5129 -2.1971 -3.9407 -3.4322 1.1762 -3.9079 -5.8269 -4.6034 -3.5170 0.2179 -8.1385 -7.4074 -4.1138 -4.4109 0.5693
8.0064 5.0569 2.2646 2.0708 2.0647 2.0689 1.0559 0.3283 -0.1699 0.9796 2.0131 -2.1846 -3.0058 -1.9887 0.5090 -0.1305 -3.0144 -4.2290 -3.3521 1.3617 -5.7437 -6.0812 -4.2137 -4.1573 -0.4660 -9.8509 -7.7569 -4.1947 -4.3228 0.3404
0.6919 2.8761 0.2177 1.3906 1.0413 -0.7255 -0.3704 0.4180 0.2276 0.4861 -0.1319 -2.6814 -2.1236 -1.5432 -0.2944 -2.1362 -3.4132 -3.3586 -3.2075 0.1411 -6.1933 -5.3703 -3.2659 -5.1186 -2.5002 -8.6807 -6.3210 -4.9850 -6.9283 -3.9789
4.2613 1.7406 -0.6626 1.0594 0.3142 -2.5351 -2.0016 -1.1830 -0.0216 -0.3543 -1.6958 -6.2402 -2.4245 -1.5673 -1.8071 -2.7482 -5.3622 -3.4756 -3.6615 -2.7801 -9.2443 -6.5513 -4.1130 -7.2498 -5.1787 -11.1045 -7.7002 -6.6924 -10.1374 -9.0621
12.1863 2.1599 -0.4648 1.0436 0.3010 -2.6309 -3.0483 -2.4221 -1.3563 -1.3604 -2.5353 -8.4324 -3.6103 -2.4188 -3.3379 -2.7878 -6.8816 -4.2253 -4.7471 -5.6036 -11.2736 -8.2536 -5.4836 -9.6563 -7.0992 -11.4708 -10.2596 -8.2437 -9.5601 -10.7062
16.1072 3.3643 0.7138 1.7072 0.4017 -1.8490 -2.6467 -1.9725 -2.2800 -2.0478 -2.5815 -6.5727 -3.9696 -3.2888 -4.1056 -2.6237 -6.1624 -4.0429 -5.7020 -6.5681 -9.6067 -8.3840 -4.8499 -10.8540 -8.3717 -6.4447 -11.0967 -9.1253 -8.6897 -10.4804
15.2487 4.1040 2.1301 2.2338 0.6159 -0.4734 -0.5424 -1.5675 -1.7169 -1.6731 -0.9188 -5.0085 -3.5889 -2.6394 -3.3971 -1.4115 -5.5022 -3.3787 -5.3383 -5.5912 -9.0285 -8.1921 -2.7587 -10.1622 -8.8790 -6.6363 -11.7208 -9.8302 -10.9226 -10.9226
10.4373 3.8854 2.1356 1.2664 0.9400 1.1025 1.9929 -2.3374 -0.5921 -0.0138 1.5104 -5.6370 -3.0343 -0.5352 -1.2160 0.4880 -6.0546 -2.9408 -3.3824 -3.3709 -10.8304 -8.4634 -1.1895 -7.6537 -7.2633 -14.1182 -12.4737 -9.8962 -11.5996 -10.2314
5.1318 3.6103 1.2263 -0.3283 0.8737 1.9712 3.3494 -3.3173 -0.1445 1.7825 2.9459 -5.0036 -2.1211 0.8815 1.0549 1.6428 -5.6684 -2.3264 -1.2937 -0.8288 -9.4855 -7.7943 -0.5442 -4.3978 -3.9208 -14.5986 -9.9026 -7.1787 -7.1408 -6.9544
4.4065 4.1651 1.4663 -0.8048 0.3119 1.7823 3.6844 -3.7890 -0.3455 2.0941 3.5814 -2.3895 -1.4172 0.4038 1.9028 2.1067 -4.1498 -2.0196 -0.6023 1.1651 -4.8418 -6.6971 -0.5247 -1.9145 -0.8044 -5.8574 -5.4991 -2.4108 -0.9742 -2.9919
8.3486 5.8482 3.0548 -0.1889 0.0099 1.4220 4.3197 -3.1563 -0.3691 1.1489 4.2365 -0.2763 -1.5733 -0.7749 1.5331 3.4153 -3.0857 -2.8160 -1.1257 2.9385 -2.1380 -6.6468 -1.1159 -0.5726 2.1893 -1.2725 -4.2629 0.6554 2.5620 1.2112
13.2521 7.7865 4.4784 0.7285 0.5471 1.7901 4.7738 -0.7755 0.1911 0.5916 4.5331 0.9116 -1.6435 -1.2979 1.1422 5.2316 -1.8760 -3.5781 -1.6816 4.8997 -0.9626 -6.1152 -1.6616 0.2177 5.5028 -2.7232 -3.7175 2.2774 2.9336 5.8629
15.9608 8.0006 4.7863 1.7742 1.2446 2.0626 3.6145 1.6595 0.7570 0.5660 3.9018 1.7331 -0.8117 -1.3082 0.9262 5.2887 -0.0461 -3.1542 -1.8040 5.4686 1.8086 -3.9247 -1.7993 0.1875 6.5032 -1.4176 0.2577 4.7389 1.5905 6.7228
16.0021 7.2922 4.7768 2.7252 1.1845 1.1472 2.5044 1.7682 0.4835 0.0029 2.9431 1.9189 0.0177 -1.5640 0.3659 4.0061 0.8523 -2.7788 -2.2389 3.6216 4.0238 -2.5510 -2.9622 -1.5521 3.9665 2.1350 3.1232 5.5125 -0.2759 2.3356
16.6081 9.1803 6.1729 3.2652 0.8410 0.2240 4.1962 0.9834 -0.3464 -0.7757 2.9459 2.3732 0.2794 -2.2843 -0.2838 4.2627 0.9846 -3.5133 -3.7162 1.6935 3.2471 -3.3416 -5.7430 -4.3449 1.7767 1.9699 0.8081 3.1447 -0.8009 0.4209
19.9624 13.1110 8.8836 3.6776 1.0902 0.7865 7.0113 2.1802 -0.3687 -0.8176 3.8311 4.4246 0.9221 -3.1159 -0.5229 5.7427 2.4975 -3.8701 -5.6242 1.4941 2.5969 -3.6275 -7.7148 -6.5141 2.0636 1.3466 -1.2818 1.6280 0.5248 4.2204
22.6428 14.6459 10.4966 4.1889 1.4629 1.7773 7.3128 4.1361 0.7287 -0.5454 3.9455 6.8039 2.1417 -3.5885 -0.6260 5.4397 5.0009 -2.5654 -6.6324 1.2291 5.1354 -1.4973 -7.3142 -7.7005 1.6883 7.4343 1.8774 1.5821 -0.4199 5.0619
21.0725 12.8116 9.5343 4.2415 1.3246 1.8499 5.3393 3.9088 1.4585 -0.4311 2.9752 6.5720 2.5129 -3.3876 -0.6242 3.3045 5.4682 -0.9752 -6.1815 -0.0259 7.1562 0.7371 -6.3785 -7.9202 -0.0238 13.8754 5.0445 -0.4567 -5.1384 -0.2877
17.2450 9.9408 6.9229 3.3710 1.3209 1.7648 3.0512 2.1551 0.9474 0.1271 2.2033 3.1002 1.3982 -2.6577 0.0606 1.5889 3.1527 -0.5860 -4.7967 -0.1544 3.6074 0.3993 -6.0020 -6.4036 0.3193 7.4488 1.6176 -3.1799 -6.9060 -2.4620
14.6249 6.8626 4.1807 2.0291 1.7610 2.1374 0.3400 1.0095 0.1278 0.9651 1.5502 -0.6635 0.0423 -2.0843 1.0304 0.5469 1.0584 -0.4885 -3.4192 1.2730 -1.8632 -0.7217 -4.6105 -3.9371 2.3526 -5.6006 -3.5780 -2.7725 -2.4579 2.4338
12.8222 3.9744 2.3763 0.8963 1.6344 2.0094 -2.2421 0.2639 -0.0546 0.9394 0.3317 -1.6207 -0.2413 -1.9593 1.1957 -0.4935 1.4758 0.5198 -2.4506 2.0918 -1.8442 0.7192 -1.8481 -2.6404 2.7589 -7.3442 -2.3473 0.5336 2.0046 6.3128
9.6583 2.8588 1.8945 0.0932 0.6545 0.8170 -2.3930 -0.5913 0.4574 0.0782 -0.6877 -0.0500 0.5413 -1.7208 0.6201 -0.5759 3.0553 1.7931 -1.5721 1.7693 2.0606 3.6497 0.3659 -2.6013 2.1369 -0.4836 1.8459 4.0045 2.9146 4.6446
6.1467 3.4815 2.0436 -0.3896 0.1056 -0.6814 -0.4932 -0.8447 1.1998 -0.5371 -1.0419 1.2550 1.5085 -1.1993 0.1212 0.8725 3.6272 2.5088 -0.7181 1.3832 3.0612 4.6823 1.0967 -2.7490 2.2896 -0.3140 1.4438 4.6050 2.3718 1.4952
5.7358 3.5281 2.0238 -0.4339 0.6914 -1.5520 0.0366 -0.8310 1.2150 -0.5093 -0.8157 0.6465 1.8510 -0.7643 0.2060 1.6469 2.9835 2.9464 -0.0371 1.1058 1.1358 3.8657 1.3423 -2.9014 1.8279 -4.9861 -1.3206 1.6704 0.6154 -0.6690
8.4761 1.8251 1.7502 -0.6323 1.1898 -1.5585 -2.0620 -1.5641 0.0885 -0.1636 0.7950 -0.8190 1.1986 -0.1780 1.1448 -0.5896 1.6145 2.9857 0.7610 1.0772 0.0453 2.8832 1.9951 -2.4470 0.2844 -4.0118 -1.8560 -0.9485 -1.6338 -2.3786
10.9687 -0.0002 1.2043 -1.7814 0.4088 -0.8922 -4.1863 -2.7057 -1.1579 0.2517 3.2264 -2.0045 -0.3755 0.5287 2.3470 -3.8516 -0.5113 1.9173 1.4696 1.7754 -1.0394 0.9668 2.5164 -1.1847 -0.5310 -0.6885 -2.7474 -1.8183 -2.5535 -2.7762
12.2381 0.1542 0.6300 -2.9643 -0.6276 0.2164 -3.7180 -3.7883 -1.4778 0.6464 4.0380 -3.5739 -2.0142 0.4341 2.5780 -3.7262 -2.7159 0.2959 1.3982 2.3292 -3.9893 -2.3236 1.9038 -0.7571 -0.6576 -2.4545 -5.5859 -4.1644 -4.4501 -2.3936
13.5982 2.1943 0.6476 -2.6143 -0.3588 1.0823 -1.3561 -5.1899 -1.1003 0.7426 2.7651 -5.6778 -2.7024 -0.5288 1.8493 -0.1827 -3.9670 -0.7811 0.7008 1.5971 -6.6742 -4.9797 0.2097 -1.7191 -0.7408 -5.2176 -6.4387 -6.5274 -7.2672 -3.2394
14.8356 4.5020 0.9378 -1.3120 0.7620 1.0475 0.2472 -6.6508 -0.8471 0.2007 1.1100 -7.2533 -2.9715 -1.5969 0.9624 2.4149 -5.1385 -2.1096 -0.6138 0.3459 -7.7446 -6.8920 -2.0336 -2.9096 0.3389 -4.3891 -5.0915 -4.6378 -5.1083 -3.8211
15.8661 6.4318 1.0698 -0.3630 1.7594 0.8059 0.4576 -7.0355 -0.9239 -0.5547 0.2828 -8.2236 -3.9501 -2.5693 -0.1173 2.4108 -7.3973 -4.7121 -3.0839 -0.0382 -9.2871 -9.9455 -4.5969 -4.2243 2.4794 -4.8095 -5.4507 -1.0101 1.1844 -1.2351
17.6567 8.1198 1.9615 0.7959 2.8389 1.2323 0.9230 -5.7983 -0.6773 -0.6908 0.6262 -8.7375 -4.9089 -3.2343 -1.2327 2.2424 -9.0774 -6.8437 -5.6378 0.2345 -11.1225 -12.6480 -6.6811 -5.5658 3.6772 -7.9234 -6.2991 0.2451 3.2717 2.6152
18.6335 8.7516 3.4023 2.4532 3.6385 1.5327 1.6954 -3.7646 0.1453 -0.5769 1.0509 -7.8979 -4.5900 -3.3798 -1.6666 2.8190 -8.3512 -6.6049 -6.5965 0.0214 -10.3980 -12.1835 -7.5493 -5.6815 3.3526 -7.3566 -4.7842 -0.0536 0.0690 2.8220
16.7487 7.9963 3.5255 3.0892 3.2130 0.9122 1.2013 -2.0876 0.7027 -1.0514 0.0461 -5.5768 -3.3863 -3.5202 -1.7292 2.3673 -6.2919 -5.1431 -6.3432 -0.6452 -7.5677 -9.7971 -7.7291 -4.6522 2.9027 -2.8296 -4.0819 -1.5068 -2.9424 -0.5716
14.8084 7.3810 2.9833 2.4981 2.4421 0.4663 0.1630 -0.7477 0.7097 -1.3429 -0.7346 -2.9019 -1.8461 -3.4340 -1.8448 1.0485 -3.9391 -3.8205 -5.5968 -0.3555 -5.0752 -7.4090 -7.1850 -3.5061 3.4555 -0.2604 -5.5102 -4.0497 -4.5422 -2.8207
15.5278 7.1946 3.7490 1.9965 2.5721 1.1777 0.3109 0.3938 0.8593 -0.4830 1.1257 -1.0596 0.0926 -2.0574 -1.0329 1.1618 -1.1262 -2.1563 -3.8356 1.6507 -2.9891 -4.1744 -4.8908 -1.6350 4.9123 -0.5086 -3.6430 -3.1116 -4.0228 -2.4728
15.3551 5.4847 4.1819 0.8959 2.4347 1.7555 0.3908 0.0833 0.8136 0.3612 3.4300 -1.0198 1.3359 -0.2259 0.9015 2.2791 0.5970 -0.6112 -1.5965 4.0600 -1.6211 -0.8883 -2.0641 1.2970 6.5362 -1.6668 1.4041 2.8843 2.0206 -0.7087
11.4310 2.1578 2.2377 -1.8307 0.8164 0.5663 -1.1903 -2.0240 -0.2324 -0.1571 2.9136 -2.3158 0.7264 0.1241 2.0011 1.7630 -0.1407 -0.5144 -0.5684 4.5643 -2.1018 -0.1377 -1.4050 3.1426 6.7767 -2.9154 2.5302 6.7099 9.0963 2.4600
7.0278 -0.4355 0.1103 -3.8678 -0.8290 -1.4159 -2.6530 -3.6160 -1.3040 -1.0344 0.8465 -2.8509 -0.3132 -0.4229 1.3524 0.0629 -1.0720 -0.9146 -0.7094 2.5215 -2.5219 -0.5417 -2.3080 2.4637 4.0590 -1.7758 0.1808 3.9824 7.6324 4.1562
4.8271 -1.4315 -0.1122 -3.0841 -0.9642 -1.8540 -2.5454 -3.2243 -1.1372 -0.8620 -0.2080 -2.2218 0.0727 -0.2008 0.6332 -0.7431 -0.2604 -0.1165 -0.6521 -0.0635 -1.3087 0.8897 -2.0132 0.6771 -0.2982 0.7681 -0.2345 0.1794 0.4560 1.3929
4.1903 -1.9559 0.2676 -1.3357 -0.2244 -0.5105 -2.7400 -2.4062 -0.3859 -0.2340 -0.2352 -2.3537 0.8044 0.0759 0.7233 -1.8785 0.3554 1.0059 -0.4966 -1.5096 -1.0746 2.6176 -0.9126 -1.2832 -3.6752 -0.6873 -0.3681 0.1628 -2.4877 -2.8050
5.0966 -2.1378 0.5999 -0.4399 0.5526 1.0434 -3.6867 -2.3269 -0.1361 -0.0206 0.3719 -3.6868 0.0970 -0.6887 0.3612 -4.3608 -0.7240 0.7862 -1.3417 -2.6385 -2.9707 1.9300 -1.5087 -4.0837 -6.3301 -4.5396 -1.9410 1.8128 -2.5775 -5.9818
6.5279 -0.8738 1.5883 0.5296 1.3434 1.9727 -2.6746 -2.2946 -0.3043 0.3798 1.5243 -4.8885 -1.5054 -1.5453 -0.6294 -5.1632 -2.4174 -0.5143 -2.8104 -4.0388 -4.9422 -0.4316 -3.7364 -6.6851 -8.3373 -5.0016 -2.1408 1.2208 -5.3167 -7.6327
5.9603 1.0970 1.9901 1.6847 1.7619 2.1699 -0.1758 -2.4636 -0.3406 1.1522 1.8951 -6.0429 -2.9567 -1.8144 -0.6934 -3.3726 -4.5412 -1.9815 -3.5483 -4.6160 -7.2047 -3.2624 -5.6133 -7.0910 -7.5255 -5.1678 -3.5208 -2.9139 -6.9142 -4.5354
4.8694 1.4660 0.8267 1.8166 1.6172 1.6874 -0.0418 -3.4268 -0.0607 1.2151 1.1404 -7.7513 -4.2829 -2.2309 0.3501 -2.5098 -7.2259 -3.4667 -3.4410 -4.0059 -10.4108 -6.3327 -6.3969 -6.1439 -5.1445 -9.7751 -8.9547 -7.5209 -4.1230 -0.3020
6.7589 0.9047 0.2892 1.4855 1.6348 1.3165 -1.5986 -3.9750 0.1908 0.5048 1.2592 -8.5616 -5.0186 -2.7623 1.2420 -2.8483 -8.3836 -4.5593 -3.1501 -2.6773 -11.5600 -7.9576 -6.2479 -5.7431 -4.5314 -13.2369 -11.5034 -7.5069 -1.9081 -3.9393
9.9642 2.3279 1.7562 1.9117 2.0611 1.7435 -0.7719 -3.0006 0.0994 0.1928 2.6192 -6.9535 -4.2331 -2.4352 1.8545 -1.1921 -6.7415 -4.3025 -2.5580 -0.8299 -8.6294 -6.6634 -5.1246 -5.3932 -4.2703 -9.1489 -6.6187 -3.1969 -3.2561 -10.4312
10.6431 5.3209 3.2690 2.3587 2.2593 2.4423 2.0369 -1.4939 -0.0407 0.4679 3.1043 -3.8838 -2.4631 -1.3304 2.6517 1.6897 -4.2043 -2.9149 -1.6928 0.4892 -4.2925 -4.2119 -3.9538 -4.3887 -2.0720 -1.5658 -1.3130 -0.4524 -4.8882 -8.2439
9.4968 7.2068 3.5009 1.6154 1.9900 2.5732 3.7093 -0.5818 -0.0403 0.5919 2.5279 -1.2439 -1.2259 -0.6175 2.9688 2.6616 -2.7070 -2.1002 -1.4793 0.2585 -1.8580 -3.3320 -4.3241 -3.8622 0.1882 2.1169 -1.1243 -1.5296 -4.2066 -1.1489
9.3797 7.6592 3.6062 0.4776 1.6873 2.2380 3.9688 0.1810 0.0561 0.5237 2.8018 0.4340 -0.5026 -0.6987 2.4460 1.9603 -1.7681 -2.2892 -1.8773 -0.2836 -1.2281 -3.8009 -5.4113 -3.9753 1.3769 1.4052 -2.1148 -2.3209 -1.5191 1.8663
10.7106 7.5874 4.4613 0.8063 1.7916 2.4382 3.8671 1.5805 0.7064 0.7284 4.0067 1.6922 0.9982 -0.8569 2.0433 1.4977 -0.0886 -1.8157 -1.7141 0.3517 -0.5785 -3.5594 -4.7976 -3.3111 2.5726 -0.3148 -0.6179 0.0421 2.2465 2.4545
12.3685 7.0093 5.2484 2.4716 2.2031 3.3783 3.4473 3.0633 1.7581 0.9426 4.1195 2.4584 2.8153 -0.9210 1.7819 1.7854 1.8308 -0.4468 -1.2929 1.0270 -0.0600 -2.7383 -3.1626 -2.3085 2.6015 -2.0665 0.6178 2.9296 4.9485 2.7374
12.9896 6.0946 4.9536 3.4674 2.3389 3.4618 2.5016 3.5539 2.0729 0.5315 2.4569 2.3438 3.2230 -1.4593 0.6540 1.7805 2.3098 -0.0713 -1.9227 0.1217 -0.2341 -2.8896 -3.0173 -2.7340 0.4165 -1.6973 0.3615 3.4814 3.9110 -0.0119
11.5658 5.6468 4.3522 3.5560 2.2447 2.3229 1.3782 3.3750 1.6769 0.0044 1.5394 2.3903 2.5696 -2.1828 -0.4613 -0.4018 1.5361 -0.9612 -3.1697 -1.5030 0.5647 -3.6480 -3.9363 -4.2338 -1.4464 3.9359 1.6047 1.9305 -0.4645 -2.6344
10.1269 6.2758 5.1185 4.1620 2.8360 2.6164 1.2408 3.0663 1.4368 0.3514 3.5358 2.9811 2.0813 -2.4570 0.0585 -3.7778 0.5951 -1.7643 -3.9655 -2.1082 1.6091 -4.4354 -4.4376 -5.4365 -1.5759 8.4617 2.3659 -0.9456 -4.1454 -0.5976
11.8844 7.3760 6.5062 4.7431 4.1029 4.9606 2.4186 1.7594 1.0362 0.8757 5.8538 1.5874 1.1994 -2.7318 1.2612 -3.5857 -1.1020 -2.3148 -4.4890 -1.3960 -1.2567 -6.0157 -5.0126 -6.0114 -1.4915 1.7338 -1.7271 -3.1853 -2.8384 1.0037
15.2570 7.5068 6.2051 3.9850 4.6991 5.7905 3.0749 -0.3131 0.1800 0.3456 4.7878 -2.2789 -0.2757 -3.2958 1.4076 0.8917 -3.2835 -2.8887 -4.8251 -0.2832 -6.6977 -7.4507 -5.9318 -5.7609 -1.4004 -10.4221 -6.5322 -2.5015 1.8644 -1.9780
16.5142 6.7058 4.4831 2.8862 4.1816 3.9994 2.1231 -1.1119 -0.3524 -0.3340 1.5805 -4.3807 -1.1418 -3.4125 0.7718 3.8701 -3.8270 -3.1167 -4.7972 -0.3397 -7.8434 -6.7734 -6.4560 -5.0823 -1.1784 -12.1802 -6.6668 -1.8362 1.6638 -3.9753
15.3647 6.1757 3.2725 2.5957 3.6196 2.6807 1.1525 -0.7032 -0.3236 0.1671 -0.3613 -2.9213 -1.4617 -2.9223 0.2079 2.9216 -2.8551 -3.0666 -4.8592 -1.9218 -4.1119 -4.7262 -6.3880 -4.8754 -1.6969 -3.5022 -5.4080 -4.5134 -4.3886 -1.3436
12.2164 5.7208 2.8980 2.5355 3.5819 2.5738 1.3950 -0.7507 -0.1150 0.8455 -0.4372 -1.2513 -1.9132 -2.5292 -0.1016 1.9979 -2.2419 -2.9556 -4.7720 -2.4029 -1.7381 -3.1204 -5.5875 -4.1383 -1.1334 0.4689 -5.9873 -6.2596 -5.3377 2.5293
7.6878 4.4556 2.7473 2.5329 3.5370 1.7754 1.4191 -0.6200 0.2623 0.3593 0.2832 -0.9753 -1.7281 -2.4756 0.0306 2.3660 -1.6752 -2.4604 -3.7939 -0.0259 -2.0511 -1.9359 -3.9072 -1.7478 2.2490 -4.6215 -5.5886 -3.5637 0.8702 4.5663
5.1692 2.4526 2.2257 2.9727 3.1089 0.5902 -0.6309 0.4284 0.5001 -0.6240 0.5145 -0.4966 -0.5969 -2.3571 0.3670 1.3084 -0.2029 -1.5489 -2.4352 2.6545 -0.4525 -0.3915 -1.8946 0.7824 5.2785 -7.2175 -2.5485 0.0304 3.9751 4.3353
5.7201 0.3253 0.8081 3.2403 2.4103 0.1096 -3.5986 0.7303 0.1904 -1.1142 -0.8413 0.1867 0.3977 -1.7756 0.0863 -0.2719 1.2612 -0.5555 -1.2750 3.2751 3.7771 1.8182 -0.0242 2.2995 5.7964 -1.6724 1.4106 2.8743 3.6215 3.6012
5.6736 -1.0312 -0.7009 2.7019 1.5757 -0.3909 -4.4104 -0.2958 -0.0699 -1.1979 -2.6365 -0.0073 0.8107 -0.9316 -0.7763 0.7062 1.8228 0.4948 0.0659 3.1166 6.6465 4.1575 1.4097 3.5932 6.4199 4.3580 5.0671 6.1331 6.6434 4.8116
3.5898 -1.1968 -1.0410 1.7099 0.7768 -1.0388 -2.9441 -1.4527 0.1651 -1.0753 -2.6928 -0.6806 0.7475 -0.5045 -1.2514 2.6305 1.6413 1.5533 1.1906 3.3619 6.7137 5.1018 1.9401 4.2919 7.6098 5.4156 7.5195 7.1812 9.2974 6.2034
2.8648 -0.9739 -0.5448 0.8718 0.2948 -0.5654 -2.0465 -2.6534 0.1570 -0.8603 -1.4252 -1.4737 -0.0544 -0.5985 -1.1210 2.1656 0.6606 2.0671 0.8951 2.9387 5.6498 3.9415 1.5338 2.9197 6.1479 4.6765 7.5688 4.1991 6.0825 4.0192
4.9466 -1.1485 -0.4135 0.4716 0.1351 0.6852 -2.8652 -3.8518 -0.3508 -0.9470 -1.0917 -2.7777 -1.2096 -0.7148 -1.1536 0.0241 -1.0524 1.4692 -0.7131 1.2611 4.0827 1.8277 0.3213 -0.0850 1.8275 4.5198 5.3193 0.1449 0.8315 -0.2653
4.7163 -2.0703 -1.5260 0.2444 -0.1002 0.6882 -4.6456 -4.1852 -0.5583 -1.3970 -2.5453 -4.0806 -1.8846 -0.7705 -1.5170 -2.5835 -2.6053 0.0452 -2.2052 -0.7673 1.7646 -0.2545 -1.5367 -2.6370 -1.9534 2.6764 1.6136 -2.6346 -2.5049 -2.4092
-1.0006 -3.6358 -3.3842 -0.0425 -0.3865 -0.3720 -6.8101 -3.8082 -0.2578 -1.7427 -4.0824 -4.0646 -1.9916 -0.9560 -1.5055 -6.8139 -3.2943 -1.1442 -2.8349 -2.3807 -0.1367 -2.2166 -3.0426 -3.6632 -3.4121 -0.2068 -2.2858 -3.6154 -3.9743 -1.6054
-4.3234 -4.0994 -3.6342 0.3200 0.0322 0.0854 -7.7077 -3.1994 0.0946 -1.6848 -3.6941 -2.7649 -1.6756 -1.2347 -1.3053 -10.1978 -3.3339 -1.4722 -3.1518 -3.0186 -0.2182 -3.4843 -3.4601 -3.7898 -3.5115 0.4986 -3.7098 -2.0727 -2.4469 0.4528
1.5927 -2.3503 -1.7649 1.6850 1.0783 1.8932 -5.8936 -2.6922 0.2908 -1.4845 -2.6338 -2.6396 -1.3010 -1.6344 -2.1410 -7.3999 -3.6485 -1.4946 -3.7001 -2.4578 -0.1017 -4.0060 -3.5761 -4.0003 -3.6822 1.7637 -2.8257 0.2782 1.2465 0.4605
8.9753 -0.6562 -0.7745 2.7210 1.3416 1.7977 -3.5193 -3.2794 0.1664 -1.5322 -3.3174 -5.1106 -1.7338 -2.1164 -3.8180 -1.1844 -5.0073 -2.0955 -4.1528 -2.2506 -2.5710 -5.2743 -4.0697 -4.7913 -4.8095 -4.4967 -4.8859 -0.4516 1.5201 -4.9573
9.8485 -0.5646 -1.4300 2.5351 0.6753 0.0023 -2.9338 -4.1951 -0.1314 -1.5027 -4.0684 -6.9350 -2.5394 -2.3636 -4.5756 0.2538 -6.3162 -3.1237 -4.0490 -3.7758 -5.7383 -7.2486 -4.5271 -6.0210 -6.7392 -12.5494 -10.6543 -5.0603 -3.7068 -11.9622
9.3511 0.1564 -0.7158 2.3805 0.9378 0.4168 -2.3368 -3.1016 -0.0529 -0.7733 -2.2907 -5.2048 -2.2186 -2.3887 -4.1005 -2.2864 -5.6566 -3.6753 -3.8969 -5.4601 -5.9827 -7.6980 -4.9661 -7.2269 -8.4167 -11.2376 -13.7088 -10.7425 -9.5134 -13.0194
11.1075 2.5779 1.6669 3.2418 2.4111 3.2933 -0.0556 -0.9636 0.2902 0.1363 -0.0814 -3.0698 -1.3102 -2.5632 -3.6560 -2.4696 -4.0767 -3.6359 -4.6306 -5.6694 -5.7956 -6.8777 -5.8974 -8.6609 -9.6521 -7.6869 -13.2613 -14.9126 -12.3673 -10.5648
10.2606 4.1433 2.6628 3.9167 2.8152 4.9873 1.5054 -0.6672 0.4598 0.2611 0.0698 -4.0316 -1.5449 -2.8433 -3.3834 -1.7087 -4.3662 -3.7898 -5.9845 -5.4852 -8.9382 -7.4828 -7.0842 -10.8522 -11.3347 -12.6772 -14.8100 -16.8245 -13.9269 -12.5863
7.2013 3.6653 1.9802 3.3895 1.4416 4.4212 0.7346 -1.7915 0.4938 -0.0782 -0.1752 -6.0301 -2.5955 -3.0024 -2.6973 -3.8246 -6.0665 -4.6095 -6.9737 -6.0288 -12.2048 -9.4187 -8.3612 -13.0102 -13.3663 -18.7291 -17.3777 -17.0902 -16.0329 -17.6441
6.3440 3.1507 1.9257 2.5981 0.3506 3.2960 0.2102 -2.6830 0.1158 -0.1706 0.6595 -6.3011 -3.2853 -3.2307 -2.0163 -5.5206 -6.5384 -5.7080 -7.3904 -6.6220 -11.5756 -10.2725 -9.9075 -13.5767 -14.0123 -17.5035 -15.9091 -15.9014 -17.2798 -18.0900
5.6497 3.5686 2.5492 2.1487 0.5588 2.4566 1.6985 -3.4990 -0.8176 -0.1620 1.3440 -5.4807 -3.8114 -3.4073 -1.5516 -3.3822 -5.4674 -6.0621 -6.9616 -6.1078 -9.0236 -9.3015 -10.3869 -11.6830 -11.3637 -13.8726 -11.2636 -12.2146 -14.0687 -11.4811
3.4347 3.7818 2.3974 1.3511 0.9674 2.1629 3.2648 -3.8456 -1.2015 -0.1572 1.2574 -4.5288 -4.2962 -2.8224 -0.6843 0.2034 -4.2537 -4.9687 -5.1103 -3.8815 -6.9666 -7.0068 -8.0730 -7.6895 -5.6867 -11.0866 -6.7244 -6.0441 -5.3643 -1.9094
2.3775 3.1085 1.5613 0.4299 0.8878 2.3762 3.0834 -3.0376 -0.4813 0.0053 0.8190 -3.3589 -3.9559 -1.5867 0.2052 2.2381 -3.3753 -3.1032 -2.9395 -1.0284 -4.4716 -3.8638 -4.2702 -3.8235 -0.8583 -6.4404 -2.6444 0.2464 3.3297 3.7045
1.3845 1.3667 0.4020 0.2931 0.4350 1.8285 1.2257 -2.4895 0.1986 0.0474 -0.4079 -2.7920 -2.9602 -0.8050 -0.0306 1.6488 -2.9649 -1.7913 -2.3179 -0.2129 -1.6163 -1.1327 -2.0911 -2.8169 -0.8538 -1.6898 0.2330 3.0627 5.0032 1.4430
-0.9811 -1.3005 -1.3713 0.6370 -0.2888 0.1615 -1.5592 -3.2930 0.2296 -0.1053 -2.4107 -3.9548 -2.5189 -0.8807 -1.2334 -1.0678 -3.5843 -1.4143 -2.8643 -2.2433 -0.6055 -0.2084 -2.3163 -4.3199 -4.2489 -1.3674 -0.2845 0.3524 0.0446 -4.8394
-0.6530 -3.2061 -2.8181 0.9573 -0.8139 -0.8591 -3.5783 -4.2535 0.1182 -0.1361 -3.7570 -5.9994 -2.7150 -1.2131 -2.4170 -2.9099 -4.8403 -1.4914 -3.0349 -4.6693 -1.6468 -1.0776 -3.4075 -5.3360 -6.3420 -4.4002 -3.2881 -4.7986 -4.9911 -8.6100
2.7336 -3.1365 -2.8605 1.2054 -1.0024 -0.6562 -3.5349 -4.5084 -0.1751 -0.3885 -3.9315 -6.8293 -2.7044 -1.3551 -3.3092 -2.0246 -5.3996 -1.7475 -2.8873 -5.2686 -2.2721 -2.5738 -4.2906 -4.7554 -5.9330 -5.3075 -4.5927 -7.0838 -6.3070 -8.5488
2.8435 -2.7907 -2.8480 0.3807 -1.6761 -0.9681 -2.9327 -4.8633 -0.8900 -1.2397 -4.0208 -6.0478 -2.8347 -1.3326 -3.7276 -0.8633 -5.2548 -2.1715 -3.0094 -4.2263 -1.3194 -3.6534 -4.6379 -3.8336 -5.0099 -2.2125 -2.8394 -6.0841 -4.8618 -7.7209
-2.1263 -3.4562 -4.0135 -2.0007 -2.8388 -2.3721 -3.1252 -5.7519 -1.5298 -1.8262 -4.3067 -4.6976 -3.5331 -1.2272 -3.0226 -1.0687 -5.1641 -2.2629 -2.6407 -2.4745 0.0651 -3.8470 -3.9242 -2.6237 -3.7536 1.6047 -0.9161 -4.7589 -2.3122 -7.4504
-6.8604 -2.9963 -4.4806 -3.7044 -3.0941 -3.1564 -2.1128 -5.8350 -1.4979 -1.2202 -3.7963 -2.5447 -3.1285 -0.8939 -1.3172 -0.2503 -4.0664 -1.1591 -0.9484 -0.4014 1.6283 -2.7823 -2.1463 -0.0904 -0.7563 4.3656 -0.0111 -3.4567 -0.3350 -4.9001
-5.7470 0.1068 -2.4774 -2.6344 -1.7766 -1.6964 0.9964 -3.8747 -0.8030 0.1201 -2.0240 0.2874 -0.7065 -0.3832 0.2008 2.6692 -1.3905 0.6413 1.0965 1.7212 3.4642 -0.9857 -0.4897 2.8389 3.5131 6.0055 1.1737 -1.0403 0.5772 1.6007
3.0364 3.8259 0.6064 0.0599 0.1051 1.9558 3.3231 -1.1692 -0.2112 1.1693 0.4367 1.1833 1.1449 -0.5003 0.7501 5.2799 0.1585 0.9513 1.5809 3.4474 3.5295 -0.5923 -0.2542 4.0395 7.0307 4.4908 1.8552 1.7295 3.2419 8.4783
13.0266 6.1615 2.7005 2.0183 1.0783 5.2535 3.7103 0.0928 -0.3837 1.3946 2.3788 -0.3372 0.5699 -1.6107 0.5556 6.1291 -0.7300 -0.8175 0.3173 4.3665 1.3840 -2.1805 -1.3719 3.3419 8.7334 1.7764 1.6130 3.9536 8.0933 12.1858
13.9588 7.0478 3.5069 2.5066 0.6833 5.0663 3.9636 0.0008 -0.7195 0.8252 2.9157 -0.7735 -0.3659 -2.5937 0.1339 5.3803 -1.1300 -2.4500 -0.9980 4.2450 0.3457 -3.3509 -2.7135 2.0490 8.3742 3.6952 2.9353 5.4958 8.9486 12.2001
8.0353 6.8012 3.8173 2.4648 0.0405 2.7178 4.2363 0.1376 -0.4593 0.0731 2.7980 0.7775 0.0599 -2.7340 -0.1042 3.3002 0.2069 -2.8429 -1.6911 3.2382 1.4072 -3.2001 -3.8576 0.5889 5.9402 7.5700 5.1430 4.5318 2.7285 8.4404
6.5157 6.2125 4.3356 3.1375 0.3968 2.4326 3.9371 1.1446 0.0466 -0.1319 3.0504 1.4042 0.6618 -2.7752 0.0638 1.9379 0.8692 -3.0394 -2.4464 2.1103 1.4920 -3.1490 -4.7781 -0.9252 2.9256 5.0455 4.0691 1.2403 -3.3744 3.3247
10.3142 6.4812 5.4623 4.7502 1.4233 4.2125 4.4681 2.6899 0.5802 0.1627 3.4133 0.7777 0.6966 -3.0569 0.4455 3.4636 0.2639 -3.1230 -3.1498 1.6156 -0.4078 -3.1270 -4.5333 -1.9059 0.9949 -2.8129 -0.0333 0.9123 -2.8063 0.5611
13.0370 7.7835 7.4000 6.3650 2.0468 5.0361 6.6163 4.1688 1.2950 0.3077 4.1163 1.4717 0.9076 -3.3190 0.5550 6.1766 0.1247 -2.7403 -3.5975 1.6347 -1.4987 -2.5951 -3.2400 -2.6723 -0.3985 -6.5702 -2.5917 3.8831 0.8016 -0.6567
12.8607 8.8956 9.1363 6.7153 1.8934 4.5960 8.4570 4.6116 1.4845 0.0640 5.5375 3.6317 1.1780 -3.8652 0.2441 6.6256 0.6322 -2.5820 -4.3148 1.6198 0.2188 -2.3476 -2.9575 -3.9796 -1.8477 -1.6788 -1.1076 2.8816 1.6580 -1.3646
10.1306 8.5755 8.8621 5.2815 1.3608 4.2223 8.1707 3.4527 0.8104 -0.0796 6.1715 4.5735 0.8817 -4.4678 0.0260 4.3707 0.7419 -2.5812 -4.9445 1.1829 2.4514 -2.6075 -4.2505 -5.6421 -3.2168 5.0715 1.8196 -3.1560 -1.3496 -0.4277
7.5678 7.6826 7.3085 3.3117 1.0396 4.1187 6.8218 1.6612 0.5116 0.2630 5.2937 3.1839 0.5853 -4.0942 0.2038 1.9212 0.1613 -2.2169 -4.9581 -0.0424 1.1753 -3.4883 -5.5654 -7.7460 -6.0302 3.6061 0.1348 -8.4418 -8.1049 -1.9320
8.7774 7.7421 6.7706 2.6609 0.7511 3.9249 6.1013 0.7296 1.2878 0.5918 4.3247 1.4464 1.1075 -2.9429 0.2511 0.7021 -0.6163 -1.9933 -5.0573 -1.7389 -3.0164 -5.2151 -6.0937 -10.2835 -10.3173 -5.0122 -7.3554 -10.8786 -15.0028 -9.0197
9.9581 7.9275 6.8856 3.1717 0.0818 3.5094 5.7361 0.8885 2.1119 0.3136 3.5515 1.0404 2.0202 -2.2488 0.0142 -0.0250 -0.8584 -1.8437 -5.4728 -2.9103 -5.5391 -5.9124 -6.0493 -11.6814 -12.3082 -10.6214 -12.8278 -10.5543 -14.8830 -13.7645
8.2206 7.8028 6.7816 3.3212 -0.0770 3.0979 5.7918 1.4004 2.1908 -0.1817 2.5840 1.4735 2.4549 -2.2541 0.0815 0.2486 -0.2103 -0.9610 -5.5111 -3.5060 -4.7269 -4.1410 -5.7677 -11.4709 -10.8039 -9.2238 -10.8024 -7.9904 -9.7286 -10.5583
9.9606 9.1296 7.6081 2.9936 0.7753 2.6405 6.9872 1.6223 1.9066 -0.2902 2.3387 2.2240 2.5691 -2.3516 0.3193 2.6325 1.2008 0.3501 -5.0233 -3.8956 -2.2464 -1.7774 -5.5054 -11.1589 -8.7113 -4.6350 -5.9442 -6.1844 -8.5700 -6.5935
16.5185 11.2242 8.9450 3.1859 1.2101 1.9137 7.6480 1.3236 1.6501 -0.1351 2.9100 3.1021 2.8803 -2.2681 0.2448 4.9232 2.8422 1.3205 -4.0968 -3.2099 0.3765 -0.4900 -4.8512 -10.4977 -6.5789 -0.9011 -3.9337 -5.4512 -9.9595 -6.4297
18.7684 11.0113 8.7295 3.6812 0.5926 1.5839 6.2768 1.0035 1.4411 -0.0252 3.3054 3.5325 3.0883 -1.9340 0.5301 4.6161 3.9717 1.9958 -2.6291 -0.9214 1.9830 0.5191 -3.3878 -7.8933 -2.9611 -0.1622 -3.8083 -3.4812 -6.5652 -4.6477
12.3787 8.5817 7.2607 3.3372 -0.0915 1.8287 5.1835 1.4401 1.4985 0.0922 3.4783 4.4152 3.2321 -1.1585 1.9430 3.7889 4.9470 2.8976 -0.6412 1.8199 3.1912 2.3667 -1.4561 -3.5599 1.1116 0.0942 -1.9372 -1.1360 -0.1794 0.4609
4.2345 6.7626 6.1207 2.3890 -0.5051 1.8392 6.4014 2.3133 1.9707 0.4849 3.4719 6.6783 4.0243 -0.1441 3.7048 5.6294 6.5268 4.1975 1.8361 3.8752 5.8342 4.9240 0.5716 1.0095 3.9001 4.5926 1.9974 0.1413 3.6811 3.6797
1.7387 5.9469 4.9802 1.7099 -0.8902 1.9580 7.5118 2.2996 2.3054 1.1622 2.8407 7.5179 4.6937 0.5080 4.3007 8.2705 7.3169 5.0472 4.1853 4.6430 7.8236 6.4139 2.0629 4.0906 5.0270 9.1944 4.3302 0.7252 3.7030 3.2928
2.6597 3.7392 2.6641 0.3865 -1.2909 2.2757 5.3463 0.9242 1.9227 1.6206 2.0782 4.4241 3.8237 0.6897 3.3514 6.9194 5.4802 4.4665 5.2398 4.0087 5.1945 4.9672 2.2134 4.6908 4.5305 4.6905 1.9942 0.2393 1.0910 2.3388
2.1540 0.3524 0.1720 -2.1037 -1.6205 1.4854 1.4364 -0.6766 1.1982 1.5537 2.2981 0.4000 2.1157 0.6199 2.0033 2.2953 2.0869 2.8333 4.7383 3.3777 -0.2252 1.4665 1.4035 3.9201 3.2231 -5.5563 -3.1649 -1.7745 -1.1826 1.5393
3.4052 -0.3645 -0.0369 -3.4411 -1.3191 0.1443 0.0673 -1.4465 0.7424 1.2041 3.4264 -0.8203 0.9342 0.2054 1.3829 0.6521 -0.3400 1.2261 3.4951 3.9069 -2.5165 -1.1375 0.5127 3.2759 2.5062 -7.5754 -5.4914 -4.2340 -1.9775 -1.4182
7.6356 2.0462 1.6429 -2.3862 -0.3686 -0.0578 1.7996 -1.6482 0.5635 0.8805 4.2805 0.0051 0.3680 -0.0907 1.6391 3.5589 -0.8618 0.2951 2.7445 4.8686 -0.2229 -1.3675 -0.0766 3.6063 3.5167 0.7350 -2.2093 -4.8652 -2.7547 -4.9120
7.6777 3.6865 2.5210 -1.0873 0.3286 0.6789 3.7914 -1.5122 0.6935 1.1673 4.9598 0.8990 0.3926 0.4840 2.8204 6.2404 -0.4355 0.1252 3.3905 6.1962 2.0818 -0.7825 0.0609 5.9075 6.7807 5.2812 1.4668 -2.7073 -1.5826 -3.2816
3.9323 4.2109 2.8768 -0.7044 0.7110 1.9271 5.3976 -0.7552 1.1771 2.2978 6.7760 1.8936 0.8356 1.0639 4.6114 6.8592 -0.3242 0.0432 4.4534 8.4957 1.1992 -1.5709 0.7918 8.8415 10.3632 0.0259 -0.3243 -0.3174 2.6570 2.6313
3.9947 5.9008 4.3338 -0.0345 0.9683 2.9572 7.2701 -0.0359 1.4938 2.7796 8.4711 2.9658 0.9317 0.4911 5.2840 7.6873 -0.6084 -0.5376 4.0915 10.2330 -0.3444 -3.0497 1.1960 9.2035 11.2728 -4.1145 -3.9583 0.7337 5.4009 6.2083
4.5209 6.4807 4.8942 0.8359 0.3858 1.5366 7.4875 -0.0977 1.4074 1.3708 6.9912 2.9465 0.8098 -0.2672 3.7625 8.2290 -0.7034 -1.0152 2.5673 9.5827 0.0139 -3.0892 0.9035 7.2366 9.6824 -1.8460 -3.0269 2.1191 4.9289 6.5866
-0.9127 3.5646 2.7455 0.7088 -0.6345 -1.6198 4.9885 -0.2995 1.2688 -0.3359 3.1906 1.6939 0.9109 -0.2515 1.6328 6.1649 -0.8169 -1.0356 1.1072 6.8774 0.5116 -2.5166 -0.1970 4.9066 6.5899 -0.4868 0.4578 2.4253 3.1939 5.3010
-4.8750 1.2861 0.8176 0.3170 -0.5479 -2.3958 2.9454 -0.4363 0.9349 -0.4664 0.9127 0.2643 0.3226 -0.5951 0.3570 3.0620 -1.6918 -1.7329 -0.7377 2.9825 -0.8671 -3.9829 -2.6064 1.0839 1.1376 -2.5915 0.4129 -1.0046 -0.7781 0.0925
0.7817 3.3917 1.7199 1.0720 0.4157 -0.6596 3.3508 -1.1823 0.1979 -0.0314 0.6343 -1.0948 -1.3324 -2.0535 -1.0797 1.7270 -3.3024 -3.6033 -3.7383 -1.1900 -3.6176 -7.4115 -5.9899 -5.0272 -5.1106 -4.7555 -4.0553 -4.7993 -5.9872 -6.5467
9.2036 6.6242 3.4475 2.3005 0.8566 -0.1337 3.5139 -1.7174 -0.2940 -0.6585 0.0047 -2.5850 -2.6079 -3.4840 -3.3714 0.6033 -4.7430 -5.2960 -7.1912 -4.4007 -6.6432 -10.4937 -9.1825 -11.1068 -8.8798 -7.4765 -9.0508 -6.5808 -8.6848 -7.9849
12.2902 7.5839 3.9524 2.7571 1.0356 -0.6176 2.0381 -1.0201 -0.1574 -1.6421 -0.9160 -3.8631 -2.8693 -4.0301 -4.9979 -2.5793 -5.6730 -6.1243 -9.9297 -6.9311 -9.3973 -12.3856 -11.9593 -16.0798 -11.5286 -11.6393 -12.3157 -10.6069 -11.3579 -6.6288
12.7973 8.0854 4.3658 2.8551 1.9620 0.7833 1.6153 -0.5588 0.0400 -1.7368 -0.5718 -4.8362 -3.0095 -4.3572 -5.1081 -5.7359 -6.7519 -6.8872 -11.5336 -9.9295 -11.7199 -13.6841 -14.7492 -20.9731 -16.4726 -14.5721 -15.2577 -16.8270 -18.3208 -10.8683
12.0667 8.9568 5.1180 3.1203 2.9785 2.9459 2.9318 -1.7186 -0.0308 -1.3165 0.2246 -5.5889 -3.1302 -4.9904 -4.8022 -6.8874 -7.7266 -7.3373 -12.0076 -12.5199 -13.4048 -14.0124 -16.5209 -24.5511 -22.0820 -14.9835 -17.8900 -19.0126 -25.5249 -19.6312
6.4671 7.5086 4.5388 2.7885 2.9851 3.4550 3.1176 -3.0710 -0.0951 -0.8388 0.3120 -5.6091 -2.6525 -5.0499 -4.3172 -7.7542 -7.2365 -6.3348 -10.9947 -12.6445 -13.7169 -12.5558 -15.2028 -23.8851 -23.7484 -14.3958 -17.5719 -17.2945 -26.2985 -22.3926
0.2844 4.1907 2.9322 1.6227 2.5533 3.6467 1.7220 -2.9469 0.0064 0.0740 0.9365 -4.4671 -1.7757 -3.8638 -2.7284 -8.8774 -5.4805 -4.4252 -8.4545 -10.2302 -12.0163 -10.0050 -11.1007 -19.5319 -21.0052 -12.8301 -14.5496 -16.8621 -21.4543 -16.0414
1.6592 2.7364 2.5350 0.9763 2.5211 4.6900 1.1678 -1.9262 0.2791 1.0250 2.2779 -3.2268 -0.9395 -2.6047 -0.8540 -7.8745 -4.3492 -3.1029 -5.9742 -7.8487 -9.4878 -7.9160 -7.7043 -15.7674 -18.3972 -9.9928 -12.4530 -17.7478 -18.0259 -11.3591
8.4373 3.1274 3.0855 1.6792 2.3145 4.3581 1.4229 -1.4344 0.6803 1.0362 1.6978 -4.0044 -0.3152 -2.4431 -0.6679 -4.5602 -4.5517 -2.5466 -5.1501 -7.9738 -9.0131 -7.0057 -7.2528 -14.9457 -19.1727 -9.7163 -13.3968 -18.0655 -20.8492 -15.9006
11.7044 2.3731 2.4031 2.2584 1.2336 1.4518 0.6077 -1.7932 1.0115 0.2370 -1.2737 -6.3202 0.0511 -2.6178 -1.9947 -1.9090 -4.8204 -1.9571 -5.0116 -9.4090 -10.7066 -6.5461 -7.7122 -14.7206 -20.4582 -13.5408 -15.6729 -18.6114 -25.8006 -21.7798
7.8142 0.5347 0.6042 0.9579 -0.2798 -1.6331 -0.5030 -2.3545 1.1218 -0.6323 -3.4134 -6.5098 0.4558 -2.2125 -2.8289 -1.0174 -4.0420 -0.8706 -3.7662 -8.3715 -10.4085 -5.0749 -6.3199 -11.9376 -17.2619 -15.0668 -15.4837 -17.6461 -23.6635 -19.3223
1.5256 -0.5388 -0.5128 -1.3174 -1.2842 -2.4550 -0.3491 -2.7861 0.9206 -1.3339 -3.0452 -3.8842 0.9293 -1.5677 -2.2960 -0.0943 -2.7947 0.4878 -1.5975 -4.1506 -6.3426 -2.1779 -3.3422 -6.6034 -9.6502 -10.6393 -11.4736 -11.7836 -12.8760 -10.2714
-1.3630 -1.7241 -1.0998 -2.4637 -1.4185 -1.6212 -0.6154 -3.3330 0.5390 -1.6291 -1.8862 -2.1245 0.9703 -0.7112 -1.0485 0.8723 -2.0548 1.6096 0.6592 -0.1232 -1.6191 1.1298 -0.3202 -0.7460 -2.1860 -4.4061 -5.8955 -3.8760 -2.2981 -1.9595
-1.8580 -4.3916 -2.4385 -2.3138 -1.0787 -1.0970 -3.0092 -3.9232 0.6372 -0.9927 -1.3092 -2.5679 0.6986 0.6354 0.3316 -0.0971 -1.7326 2.2864 2.8462 1.5775 1.3488 3.4801 1.9221 4.0297 2.0268 0.3210 -1.4687 -0.4966 1.0372 1.0791
-3.2749 -6.5380 -3.7817 -1.7698 -0.6243 -0.9133 -5.0756 -4.2338 1.3518 0.3565 -0.8778 -3.3567 0.5378 1.3073 1.4341 -1.9141 -1.8630 2.4238 4.1558 1.9958 1.6979 3.4509 2.5215 6.7204 3.3083 1.0914 -0.9166 -2.4474 -0.6018 -0.8770
-4.6295 -5.9365 -3.7105 -1.1005 -0.3450 -0.0390 -4.1141 -4.3936 1.6901 1.1079 -0.5178 -3.9537 0.1508 0.3027 1.7248 -1.3642 -2.6888 1.8837 3.8305 2.1478 -0.9226 1.1454 1.6658 7.1302 3.3709 -4.0016 -4.5019 -4.7190 -2.0960 -3.9962
-6.2416 -4.2646 -3.1152 -0.6721 -0.8455 0.7128 -1.7237 -4.3952 1.4251 0.6022 -0.8246 -3.7837 -0.2892 -0.7358 1.7898 0.9295 -2.7171 1.2435 3.2913 2.3728 -2.9137 -0.4814 1.7140 6.9449 3.9276 -8.1794 -6.4703 -4.1032 -1.2706 -4.6870
-11.4419 -4.0894 -3.3903 -0.6235 -1.6645 0.6279 -0.5991 -3.8209 1.4710 0.0755 -0.9373 -1.4881 0.0742 -0.0538 3.1165 1.2961 -1.1051 1.1236 4.2188 3.5436 -1.1083 -0.1168 3.4126 8.0510 5.3033 -5.1032 -4.0262 -2.4662 2.1321 -2.2829
-16.0071 -4.3159 -3.3398 -0.0336 -1.1599 1.6614 -0.2581 -3.0017 1.5177 0.5931 0.8879 0.6228 0.3577 0.8154 5.2889 -0.7512 -0.8759 0.4868 5.1705 4.9530 -0.3007 -1.3161 3.4321 8.7437 4.9424 -2.7424 -4.2221 -3.2814 4.5955 0.1629
-10.6599 -2.3209 -1.2353 1.3046 0.3491 4.1687 1.0361 -2.7811 0.6962 1.1290 3.7489 -0.9225 -0.8313 -0.2467 5.9452 -1.5105 -3.9447 -1.5334 3.7841 4.3926 -4.5463 -5.8072 -0.0782 5.9353 0.9439 -7.1312 -9.7694 -6.5224 0.3518 -1.1217
1.5632 0.9002 1.3361 1.9574 0.5276 4.3954 2.4925 -3.0935 0.0302 0.5222 4.3922 -4.1597 -2.1670 -1.8710 4.4913 1.0401 -6.8487 -3.1527 1.2592 2.8535 -8.5575 -9.4817 -3.2622 1.6200 -3.2330 -9.6378 -12.4626 -8.8597 -7.7465 -3.9058
7.8561 2.0357 1.4785 1.1072 -0.8075 1.3062 2.0328 -3.3190 0.3589 -0.7043 2.1361 -5.4301 -2.2087 -1.8778 2.6268 3.3874 -7.1499 -3.0963 0.0229 2.6546 -8.7923 -10.3744 -3.1688 -0.3798 -4.2034 -7.3152 -10.5738 -9.1480 -11.0309 -3.7072
5.6180 1.1999 -0.0507 -0.1387 -1.4782 -0.7147 0.3291 -3.2788 0.3962 -1.7246 -0.1168 -5.2973 -2.3496 -1.4976 0.8056 1.2424 -7.3816 -3.2607 -1.1076 1.1699 -9.3259 -11.6715 -3.3617 -2.4388 -5.4351 -7.7312 -11.3299 -8.9009 -10.5421 -3.6694
3.2632 1.5899 -0.1466 -0.2198 -0.6362 0.3357 -0.0117 -3.0954 -0.1585 -2.3118 -0.6408 -5.3168 -3.3935 -2.5882 -2.0064 -3.9930 -8.7981 -4.8675 -4.2696 -4.7553 -11.0904 -14.0480 -7.3046 -8.5956 -10.4310 -8.9005 -14.0240 -8.8770 -12.8130 -7.7428
5.7457 4.4394 1.4542 1.1486 0.8253 1.6173 1.1625 -2.8268 0.0008 -2.2521 -0.9407 -5.4528 -4.0389 -4.0084 -5.1394 -7.5021 -9.4457 -6.5333 -8.3136 -11.5809 -11.5033 -15.5178 -12.6476 -16.7530 -15.8413 -6.3371 -14.1288 -10.8711 -17.0633 -10.8399
10.9423 7.8048 2.4440 2.7078 2.0384 1.8090 1.6249 -2.4321 0.4256 -1.6193 -2.2308 -6.3531 -4.2491 -4.3897 -6.5628 -7.8862 -9.3159 -7.4089 -11.0803 -14.3658 -12.3376 -16.7494 -15.8823 -22.6723 -18.2194 -7.7577 -15.0479 -16.0969 -20.1915 -9.6854
15.2234 9.3279 2.3026 3.1902 2.5762 2.6060 1.0001 -2.0413 -0.0411 -0.8586 -2.9524 -8.0975 -4.9464 -4.3499 -5.7935 -6.9925 -9.8811 -7.6575 -11.8183 -13.5433 -14.6663 -17.8245 -16.3007 -24.9829 -19.2504 -15.0663 -18.3131 -19.5961 -22.2191 -11.0535
16.4248 9.1663 2.5915 2.9419 2.7268 4.3994 1.6722 -1.8531 -0.3801 -0.1739 -1.6931 -8.2927 -5.2476 -4.0231 -3.7707 -4.8484 -10.1420 -6.9671 -10.2266 -11.3408 -14.8464 -16.5264 -14.6207 -23.4483 -20.0365 -17.0169 -19.1062 -17.5605 -22.7358 -16.9823
13.6370 9.0256 3.2833 2.9049 3.0307 5.3014 4.1360 -1.5873 0.4033 0.2618 -0.2523 -5.9652 -4.0852 -2.6816 -1.4492 -1.1425 -8.6371 -5.5081 -7.0136 -8.1906 -12.2358 -13.7079 -12.1266 -18.8839 -18.6310 -11.4332 -17.0357 -15.4405 -22.3433 -18.7586
9.7938 8.4052 2.8637 2.8482 3.2587 4.9475 4.8685 -1.1676 1.1345 0.4207 -0.0585 -4.4513 -2.7096 -1.1409 0.1304 0.5519 -7.1469 -4.5026 -4.4410 -5.3749 -11.1742 -12.5020 -10.3595 -14.5166 -15.8561 -8.5934 -16.3834 -17.8097 -23.6500 -15.1603
10.4262 5.9039 1.6545 2.0900 3.0536 5.6486 2.2007 -1.5184 0.7433 0.8037 0.8004 -6.6233 -2.8409 -1.0793 0.4095 -2.1640 -8.1498 -4.7963 -3.7045 -4.8626 -13.8963 -13.0307 -9.7578 -12.7061 -15.2410 -13.2940 -18.9006 -20.7883 -26.1346 -15.1509
10.8804 2.2526 0.1152 0.5448 2.1267 6.8574 -0.8195 -3.1922 -0.2019 1.1767 1.8871 -9.9659 -3.8569 -2.2618 -0.0240 -5.4817 -10.0798 -5.5980 -3.5187 -5.4219 -17.2352 -12.9050 -8.9646 -11.5553 -15.7264 -19.7447 -21.8305 -20.8421 -25.8829 -18.2977
0.5401 -1.6924 -3.0910 -1.3909 -0.0561 4.2593 -2.5164 -5.0413 -0.8745 0.3666 -0.6941 -10.5170 -3.9317 -2.8107 -0.5183 -5.8959 -9.6855 -5.1686 -2.5401 -4.4190 -17.0027 -10.6896 -6.5951 -8.1146 -13.2250 -20.7176 -20.7156 -19.0384 -21.2643 -17.0167
-12.9011 -5.2557 -6.6508 -2.5912 -2.6265 -1.8312 -4.0241 -5.4504 -0.9481 -1.4174 -5.7208 -8.8405 -2.8861 -2.0117 -0.9147 -4.2216 -7.5351 -3.2082 -1.0999 -2.4896 -13.4512 -7.1686 -3.6622 -3.1956 -8.5884 -15.7213 -15.5289 -15.6341 -15.0095 -13.7953
-13.8742 -6.8152 -7.2938 -2.2750 -3.8453 -6.0529 -4.8468 -4.5606 -0.2255 -2.4976 -7.9579 -7.8405 -1.8200 -0.8082 -0.9802 -1.3671 -6.1712 -1.1885 0.2336 -1.4639 -10.1035 -4.1940 -1.7793 0.5278 -5.3730 -10.4517 -10.9576 -11.3150 -10.8453 -13.7425
-8.5707 -7.2290 -6.5339 -1.5706 -4.0112 -6.6871 -4.9576 -4.1389 0.8561 -2.1275 -7.2449 -8.3425 -1.0980 0.3694 -0.4892 0.7652 -5.8163 -0.0014 1.6658 -0.6797 -9.1322 -2.7718 -0.1422 2.7665 -3.7234 -10.2062 -9.8445 -10.1239 -9.7461 -13.2121
-8.7884 -9.1109 -7.3694 -1.4729 -4.0296 -5.3672 -6.6467 -4.6241 1.1987 -0.8118 -5.9164 -9.4439 -0.5725 1.7496 0.5922 -1.2542 -5.5728 0.5578 3.1639 0.7033 -9.8294 -2.3828 2.0469 4.3886 -2.9652 -13.7581 -10.5094 -12.2070 -9.5972 -10.7736
-8.9586 -10.8940 -7.6260 -1.1760 -3.3821 -2.6970 -8.6228 -4.3854 0.7343 0.4341 -3.4654 -9.3945 -0.4535 2.4791 1.8153 -5.1297 -5.0352 0.5426 4.0840 1.5957 -9.4495 -1.8904 3.0538 4.9803 -3.6613 -14.2667 -9.8063 -12.3081 -8.6359 -10.9058
-5.2013 -8.9881 -5.0827 -0.4337 -2.6167 -0.4989 -6.4538 -3.1066 0.5654 0.3752 -0.7475 -6.7377 -0.7890 1.7026 2.1036 -4.5071 -3.7954 0.0306 4.0360 1.4116 -6.5284 -1.2251 1.8310 4.3283 -4.0845 -9.4033 -7.6875 -9.7808 -7.3220 -11.3974
-3.6672 -4.4255 -2.2168 0.1268 -2.9356 -0.6989 -1.2628 -2.3944 0.9970 -0.6643 -0.2014 -3.0585 -1.1361 0.5996 1.4805 0.1280 -2.1248 -0.4510 3.4217 1.3998 -3.2766 -1.3549 0.3919 3.5868 -1.9611 -4.2779 -6.2899 -7.9010 -5.6752 -6.7705
-2.4204 -1.0213 -0.8089 1.0527 -2.8557 -0.9529 1.4995 -2.4403 1.3052 -0.6247 -0.2634 -1.5971 -1.2753 0.4058 1.6198 3.0944 -1.4035 -0.7338 2.9120 2.4934 -2.2295 -2.3337 0.4743 3.4421 0.5082 -2.4235 -5.8451 -6.9937 -3.8224 -1.7661
2.3234 0.2052 0.2140 2.3823 -1.0322 1.1982 1.4681 -2.4859 0.9690 0.7626 1.5612 -2.6822 -1.6637 0.2874 2.8388 3.2485 -2.7534 -1.3590 2.4618 3.5329 -3.3457 -3.4995 0.6930 3.0017 -0.1533 -3.5475 -6.7978 -7.4313 -4.1602 -3.5975
2.1552 0.6433 0.5961 2.2513 0.3385 3.1899 2.4806 -3.2981 0.0959 1.4837 3.1354 -3.7232 -2.6018 -0.2111 3.2585 2.9293 -5.3368 -2.5106 1.6520 2.8453 -5.0713 -4.9298 -0.5477 1.5087 -2.7227 -5.7725 -9.5383 -8.9231 -6.1928 -7.3101
-6.4230 0.8481 -0.6814 0.2987 -0.4566 1.8655 4.5841 -5.0228 -0.6838 0.8559 1.7582 -3.5488 -3.5402 0.0176 1.9738 2.6997 -6.9854 -3.5036 0.6636 0.7398 -6.2226 -6.9616 -2.1517 -0.4569 -4.3657 -6.6305 -11.0546 -8.0226 -6.7504 -5.2026
-10.9811 0.2914 -2.4030 -1.2511 -1.7995 -1.3427 4.5340 -5.8128 -0.9826 -0.1590 -1.2147 -4.0349 -4.1678 0.7221 0.0807 2.3473 -7.3405 -3.9434 -0.2631 -1.5141 -7.6161 -9.4842 -2.8300 -2.6027 -6.5623 -7.2143 -10.5132 -6.4847 -8.8942 -2.9258
-5.0140 -1.0458 -3.0501 -1.3377 -2.0868 -2.8039 1.7088 -5.0933 -1.1024 -1.0253 -3.0038 -6.2013 -4.9183 0.4901 -1.3444 1.0963 -7.9238 -4.2134 -1.2802 -3.7525 -10.1964 -11.7283 -3.2635 -5.6232 -11.6368 -8.3319 -10.9446 -9.5673 -15.7681 -8.5857
2.3103 -2.0510 -2.7457 -0.9994 -1.4635 -1.0834 -1.3620 -4.3411 -1.1990 -1.3235 -2.4421 -8.3237 -5.6953 -0.4310 -2.2222 -2.8961 -9.3145 -4.7217 -2.5652 -6.1441 -13.1392 -13.1513 -4.6257 -9.6689 -17.3599 -8.0887 -13.0509 -14.2547 -21.0155 -16.0649
5.6540 -1.0837 -1.7112 -0.7573 -0.2998 2.2929 -2.1091 -4.3630 -1.2504 -0.8813 -0.5092 -9.8552 -5.9970 -1.1408 -3.0273 -7.6481 -11.2684 -5.7204 -4.5034 -8.5423 -16.5386 -14.8993 -7.4965 -14.3128 -20.9085 -10.5197 -16.6121 -16.1266 -21.7446 -17.3107
8.5679 2.0019 -0.3041 -0.5218 0.7281 4.1635 -0.1542 -4.9209 -1.4502 -0.8665 -0.0045 -11.6399 -6.0005 -1.5983 -4.0549 -7.7767 -13.1484 -6.8951 -6.8340 -10.6960 -20.1930 -17.2581 -10.8583 -18.6184 -22.4935 -17.7552 -20.9104 -18.1342 -24.1719 -16.2504
8.6091 4.2343 -0.3086 -1.0103 0.3154 2.1553 1.7371 -5.8271 -1.5696 -2.0846 -2.5247 -12.5264 -5.9618 -1.7429 -4.8101 -4.0148 -13.3629 -7.1984 -7.8607 -11.3739 -21.2614 -17.7049 -11.8094 -20.1817 -21.8403 -20.9687 -21.8190 -20.2133 -26.9882 -16.8574
1.9425 3.0479 -2.2291 -2.2658 -1.2644 -1.7516 0.8830 -6.1931 -1.2180 -3.1456 -5.3076 -11.2989 -5.5362 -1.6240 -4.3783 -2.5225 -11.3791 -6.2803 -6.5760 -9.2442 -18.8617 -15.1294 -9.1769 -17.4628 -18.0486 -17.1168 -17.5889 -17.3486 -23.0765 -15.2743
-2.7056 0.9143 -2.8966 -2.4276 -1.6222 -2.4832 -0.9887 -4.3433 -0.5631 -2.4243 -4.2402 -8.4136 -4.0997 -1.4132 -2.3778 -3.7186 -8.0404 -4.5313 -3.9118 -5.0808 -14.2194 -10.8269 -5.2813 -12.2980 -12.7877 -10.8685 -10.4861 -10.9272 -15.7613 -10.3128
2.4150 1.2603 -0.4861 -0.8454 -0.0868 0.5150 -1.1869 -0.8155 0.1262 -0.5987 -0.1435 -4.6394 -1.6774 -0.7827 0.4064 -3.4205 -4.0616 -2.2424 -1.2451 -1.0562 -7.9716 -5.6969 -2.4774 -7.3253 -8.2162 -2.0604 -2.9905 -6.4713 -12.0600 -6.2654
8.0297 2.3606 1.4513 0.0389 0.9943 2.2538 -0.7803 0.7019 0.4836 0.3852 2.0989 -2.3884 -0.0975 -0.1251 2.1561 -1.8416 -1.6738 -0.7590 0.2956 1.2852 -4.4824 -2.3762 -1.3869 -3.5067 -4.5107 2.7913 -0.9802 -5.1377 -10.6916 -4.1713
4.2677 1.1849 0.0263 -1.3043 0.5278 0.8399 -0.9664 -1.4727 0.0573 0.0621 0.9221 -3.7805 -0.9663 -0.3677 1.7294 -0.8754 -2.8351 -1.3510 0.4451 1.9204 -7.5891 -3.5384 -1.4078 -0.7907 -1.7176 -5.8725 -7.1995 -5.3489 -8.6567 -1.7516
-3.6371 -1.6168 -2.5344 -3.0301 -0.0581 -0.8634 -1.0627 -3.9550 -0.6034 -0.6103 -1.0156 -6.0021 -2.2940 -0.8185 0.2083 0.4287 -4.5754 -2.2834 0.5151 2.3323 -11.2792 -5.4428 -0.7401 1.5823 -0.3179 -16.2276 -11.4644 -5.5441 -6.8851 -0.4578
-8.5142 -4.4003 -3.9912 -3.5495 -0.3757 -2.0094 -1.9144 -3.5756 -0.4598 -1.2072 -2.3825 -5.4738 -1.3926 -0.3111 -0.3621 1.5872 -3.4279 -1.3455 1.5136 3.7241 -9.3279 -3.4119 1.2213 4.3909 0.3970 -13.5658 -6.9232 -4.1636 -5.4409 -2.1644
-10.7720 -6.3081 -4.5936 -3.6514 -1.2800 -3.6714 -3.7438 -1.7026 0.2768 -1.5704 -3.2726 -3.1012 0.5284 0.6689 0.6866 1.1041 -1.0714 0.6973 2.8409 5.3065 -5.1438 0.0728 2.6862 7.0616 1.7254 -6.4388 -1.9285 -0.8733 -2.0730 -2.3576
-10.8308 -6.7002 -4.3221 -4.1519 -2.3804 -4.7334 -4.1821 -0.9870 0.6391 -1.1954 -2.9631 -0.7809 1.2871 1.2480 1.9773 0.5888 0.4427 2.3943 3.7313 5.4912 -1.6260 1.9978 3.0358 8.4221 3.1179 -2.8600 -0.6405 2.8888 2.7012 1.3406
-8.9127 -6.7221 -3.6813 -4.7696 -2.8271 -3.9435 -3.4372 -1.7480 0.4018 -0.6171 -2.1767 0.8659 1.4100 1.2652 1.7788 0.9471 1.7548 3.3254 3.8541 4.1343 2.6639 3.8851 3.4846 8.1897 2.5701 2.9295 2.5477 4.2360 4.3744 1.8760
-8.3337 -7.5372 -4.1133 -5.0791 -2.8269 -2.3641 -3.7651 -2.7600 -0.0879 -0.9288 -2.6434 0.7932 1.4885 0.6669 0.5699 0.7037 2.2106 2.8477 3.2117 2.8812 5.1262 5.4907 3.7765 7.0758 0.6491 7.7770 5.6076 1.8269 1.8681 -2.9281
-8.9235 -7.4710 -4.8922 -4.8528 -2.6492 -1.3903 -4.2822 -3.0437 -0.6144 -1.5882 -3.4941 -0.7497 0.6560 -0.2861 0.1038 0.2268 0.9372 1.0819 2.3974 2.8464 3.3461 4.7505 2.7305 5.8851 0.2552 4.4334 3.5822 -0.3457 -0.1028 -4.5562
-6.1646 -5.5659 -4.1993 -4.0638 -2.0069 -0.9103 -3.8213 -2.6960 -1.1018 -1.4150 -2.9271 -1.7311 -0.8810 -1.0193 0.1718 0.0730 -0.2057 -0.4586 1.6348 2.7690 1.2743 2.7878 0.7334 4.4155 0.8212 -0.0791 0.8679 0.8947 -0.6942 -1.7530
-0.9427 -3.9459 -2.8274 -3.0589 -1.0622 -0.0835 -3.6698 -2.8583 -1.5351 -0.8294 -1.6132 -2.2038 -2.0656 -1.4006 -0.3014 -1.0593 -0.6218 -1.2097 0.6516 1.3590 0.5291 0.7111 -1.0013 2.1871 -0.8096 -0.8377 -0.3741 0.8381 -4.2578 -2.0183
-0.0383 -4.0898 -2.8313 -2.5923 -0.6143 0.5337 -3.8730 -4.2406 -1.9110 -0.9687 -1.3745 -3.6106 -3.1927 -1.5215 -0.9466 -2.5130 -2.1962 -1.8614 -0.0821 -0.4952 -1.7032 -2.2181 -1.7748 -0.1500 -4.1460 -3.6997 -3.8191 -3.6511 -9.3305 -5.1564
-4.9650 -5.1512 -4.1681 -3.1494 -1.0039 -0.6844 -3.3392 -5.8591 -2.0983 -1.8038 -2.5544 -4.8016 -4.7109 -1.1933 -1.8157 -2.6473 -4.4105 -2.4823 -0.2239 -1.9370 -3.6627 -4.4580 -1.5978 -2.1275 -6.9795 -5.6332 -6.2600 -7.1540 -10.6617 -6.8415
-9.5058 -5.8554 -5.2084 -3.9244 -1.6076 -3.0622 -2.7230 -6.3774 -1.9155 -2.3234 -3.8715 -4.4879 -5.5172 -0.2319 -3.4487 -2.7709 -5.2932 -2.6144 -0.4429 -3.4108 -2.7087 -4.4738 -1.2742 -4.2835 -9.5893 -0.2847 -3.9620 -7.1166 -10.3998 -8.0287
-9.8246 -5.5443 -5.2964 -3.7583 -1.5680 -3.9435 -2.7617 -6.0606 -1.4515 -1.9372 -4.2213 -4.8280 -4.8436 0.9158 -4.3230 -4.1081 -5.7722 -2.3852 -0.8671 -4.8346 -3.3432 -4.8540 -1.6635 -6.3195 -11.8065 2.2067 -3.3469 -7.3600 -12.4955 -8.3270
-7.9509 -4.3685 -5.0962 -2.9833 -0.7955 -2.9142 -2.9168 -6.0832 -1.2520 -1.2202 -4.0655 -7.6912 -4.0810 1.0537 -3.4219 -5.2366 -7.5194 -2.6376 -1.2670 -5.7836 -9.4012 -7.7505 -3.0558 -7.8261 -12.5868 -7.5912 -8.9412 -8.4540 -13.9138 -6.4515
-5.3007 -2.8756 -4.7501 -2.5207 -0.0570 -1.7456 -2.6969 -6.5811 -1.6223 -1.1052 -4.0743 -10.8817 -4.5031 -0.2276 -2.8953 -5.2228 -9.6361 -3.9289 -2.3877 -6.5943 -15.9414 -10.8732 -5.1340 -9.7206 -13.1860 -17.7809 -14.3912 -8.9657 -12.9562 -6.8489
-2.0908 -1.3350 -3.5448 -2.2272 0.1118 -1.0656 -1.7680 -6.6751 -1.7935 -1.5300 -3.4738 -11.3084 -4.8533 -1.3681 -3.6112 -4.4653 -10.3024 -5.2298 -3.9763 -6.8194 -16.8234 -11.3742 -6.3441 -11.0849 -13.7160 -15.2073 -13.3875 -9.4153 -12.7479 -10.4442
-0.7690 -0.2998 -2.0177 -1.7966 -0.0589 -0.5873 -0.4748 -6.0353 -1.2004 -1.6772 -1.8949 -9.5191 -3.8671 -1.1669 -3.3504 -3.3664 -9.5386 -5.1818 -4.1306 -5.2689 -14.0692 -10.0440 -5.4485 -9.1542 -11.4285 -7.5624 -9.2326 -8.5875 -12.2960 -10.5838
-2.7508 -0.5640 -1.8848 -1.6517 -0.4686 -0.8409 -0.2503 -5.2740 -0.8920 -1.3814 -0.9958 -8.4395 -2.8903 -0.7421 -1.8797 -2.6783 -8.9219 -4.3363 -2.8674 -2.8617 -13.3079 -9.4364 -4.0754 -4.9995 -7.0477 -7.5842 -8.5464 -6.2537 -9.3748 -6.3870
-5.7911 -1.6686 -2.8414 -1.9018 -1.1962 -1.9731 -0.9986 -4.6489 -1.4868 -1.1497 -1.4712 -8.1288 -2.8850 -0.9723 -1.1530 -2.5319 -8.5080 -3.5476 -1.9502 -1.5593 -13.5198 -9.0894 -3.6434 -2.1872 -4.2325 -11.2208 -9.9025 -5.3071 -6.9526 -3.4501
-7.2773 -2.5063 -2.8221 -1.9257 -1.5899 -2.4982 -1.0972 -3.5998 -1.6084 -0.9566 -1.2701 -6.2085 -2.3599 -0.8444 -0.8532 -2.0967 -6.6618 -2.2371 -1.1002 -0.8866 -10.1746 -6.4753 -2.2764 -0.6459 -3.0189 -9.2013 -7.6174 -5.2478 -6.2979 -3.1452
-6.3709 -3.3455 -1.8500 -1.5280 -1.1753 -1.6030 -1.1240 -2.2497 -0.5470 -0.4524 0.4191 -3.5264 -0.8569 -0.0198 0.1581 -1.8021 -3.9747 -0.5116 0.6306 0.4223 -5.1942 -2.4373 0.6976 1.3154 -1.7981 -4.9867 -3.5209 -3.2202 -4.6353 -3.2726
-4.9533 -5.0668 -1.5957 -1.2945 -0.7744 -1.2436 -2.7366 -1.5989 0.5110 -0.0977 1.4327 -2.3144 0.1569 0.5038 0.9154 -2.7055 -2.2299 0.6989 2.1529 1.7836 -2.1325 0.5484 2.8723 3.4994 -0.4210 -2.9769 -1.1514 0.9547 -0.7668 -1.0745
-7.1046 -7.1744 -2.0124 -1.3145 -0.9565 -2.7619 -4.8402 -1.5740 1.0756 -0.3401 0.9866 -0.8761 0.7536 0.6751 0.9070 -4.3162 -0.2970 1.8641 2.8173 2.7162 1.6208 3.3201 3.8419 5.9244 2.0027 2.2060 3.2929 6.7212 4.8333 4.9304
-12.1830 -7.9539 -1.9679 -0.8299 -0.9388 -3.3932 -5.0916 -1.2911 1.6334 -0.5299 0.8807 1.9367 1.8394 0.9179 1.1447 -5.2311 2.3826 3.1201 3.4050 3.7077 6.6681 6.2008 4.8893 8.3393 5.2850 10.1710 9.9018 11.4784 9.6821 10.0117
-12.9493 -6.2726 -1.3123 0.2468 -0.3106 -1.1130 -3.1902 -0.9066 1.7662 -0.4100 1.4363 2.9466 2.3924 0.6749 1.3690 -3.8641 2.9019 2.8761 3.5008 4.5088 7.6724 6.3227 4.9687 8.9070 7.0346 11.4244 10.8737 10.6785 10.2683 9.4579
-6.9633 -3.1061 -0.3307 1.1402 0.2133 0.5485 -0.7095 -0.6884 1.2174 -0.6818 1.1668 1.4045 1.9265 0.0595 0.8149 0.4462 1.1754 1.4148 2.5794 4.9326 4.6957 4.3066 3.6673 8.0146 7.6386 5.9017 6.3215 6.6189 8.3939 6.7300
-0.3937 -0.5774 0.9692 1.7910 0.4160 -1.1986 0.8402 0.0286 1.0706 -1.0823 0.3544 1.0832 2.3546 0.2695 0.6413 5.3827 1.2634 1.3879 2.1987 5.7450 4.0402 4.5031 3.6028 8.5511 9.5099 2.7417 4.3506 6.1734 8.3228 5.6106
3.1412 0.4589 2.4602 2.5813 0.7913 -3.0896 1.2043 1.2915 1.8053 -0.8116 0.6879 3.1752 4.3255 1.0651 1.6308 7.6543 3.9204 3.2273 3.2196 6.8932 6.9286 6.9479 5.6209 10.7568 11.9144 4.8465 6.3720 8.7781 8.9647 5.9764
4.3487 0.3986 3.6285 3.0322 1.0807 -2.4968 1.1571 2.3023 2.5271 -0.3966 1.9954 5.2835 5.9059 1.2153 2.2544 6.9707 6.2177 4.8730 4.0947 7.2676 9.7799 8.5511 7.4431 12.1987 12.8794 9.0212 9.2985 9.7828 7.9937 8.8862
0.7561 -0.2924 3.6594 2.6884 0.5725 -1.7553 1.6270 2.7124 2.7526 -0.3936 2.4279 6.6494 5.9687 1.1207 1.5766 5.3276 7.1456 5.5374 4.1155 6.5424 11.3334 9.1964 8.1638 11.7037 12.0203 13.2497 12.0647 9.4651 6.8786 12.4296
-6.9100 -0.9395 2.3789 2.1476 -0.3675 -2.1804 2.4997 2.2194 2.7279 -0.3153 1.3377 7.5914 4.9534 1.5583 0.3922 3.5789 6.9284 5.5292 4.0351 4.9392 11.5301 9.1346 8.1321 9.0586 8.2435 16.5982 11.7390 7.9355 4.9758 10.1037
-9.4905 -1.0577 1.1175 2.0651 -0.6010 -1.7442 2.5965 0.6359 2.2621 -0.3150 0.0905 6.2621 2.9991 1.4657 -1.1336 1.1832 4.5434 4.1400 3.1336 1.8298 8.4060 6.1538 5.8917 3.6541 0.6439 15.1353 5.3476 2.1316 -1.3878 1.9789
-5.4681 -0.8434 0.9938 2.2312 0.0607 -0.2004 2.2002 -0.8667 1.1120 -1.0013 -0.3088 2.1709 0.6199 0.0890 -3.1642 -1.2687 0.5817 1.2692 0.5092 -2.8652 1.4794 0.4906 1.0902 -3.1918 -7.4929 4.5771 -3.8641 -5.4710 -9.5217 -4.0283
-4.6809 -0.4185 1.2251 2.1084 0.5554 0.3052 2.8200 -1.2071 0.0202 -1.6677 -0.6929 -0.7477 -0.5997 -1.0747 -4.5387 -2.2801 -1.5648 -0.9743 -2.0794 -6.8717 -4.0399 -3.2330 -2.6469 -8.0767 -11.8783 -6.8589 -8.3573 -7.8868 -12.8402 -5.0227
-7.2609 0.2593 1.1311 1.6397 0.1648 -0.3666 3.7635 -1.4482 -0.2803 -1.4132 -1.2367 -0.7478 -0.5896 -1.0079 -4.2280 -1.9357 -1.1268 -1.2929 -2.8878 -7.8642 -3.7756 -2.9627 -2.8821 -9.7603 -12.8314 -6.0436 -5.1111 -5.5139 -12.3057 -5.3232
-5.1568 0.9323 1.2319 0.9942 -0.6149 -0.6982 3.6728 -2.8099 -0.3282 -0.7941 -0.6279 -1.5217 -1.1656 -0.8127 -2.8766 -1.1462 -1.6490 -1.2575 -2.7124 -6.3118 -2.7255 -2.5939 -2.0786 -9.5055 -12.1238 -0.5197 -1.3208 -4.4439 -11.5215 -6.2970
-1.8880 1.3717 1.1873 0.0949 -1.1121 -0.6987 3.3467 -4.2816 -0.5495 -0.5144 0.5471 -3.9557 -2.1852 -0.9674 -1.6336 -0.2069 -3.9258 -1.9295 -2.2657 -4.0525 -6.0025 -4.3989 -2.5644 -7.6805 -9.3204 -4.6813 -4.1981 -4.6685 -8.8962 -5.5009
-2.9203 1.7087 0.6686 -0.5984 -1.2918 -0.7737 3.2899 -4.2512 -0.3792 -0.3492 0.7044 -4.5205 -1.6783 -0.6823 -0.8966 0.1812 -4.5249 -2.1614 -1.3551 -2.0922 -8.9217 -5.2144 -3.3349 -4.7911 -5.4381 -11.1193 -8.8272 -2.4774 -5.2161 -3.2335
-2.1102 2.2614 1.1519 -0.0621 -1.2312 -0.2734 2.9566 -2.7074 -0.1103 -0.2715 0.9806 -3.1365 -0.0786 -0.3654 -0.5935 -0.2899 -3.0601 -1.8537 -1.0184 -0.9259 -7.6313 -3.7987 -3.5661 -2.9321 -3.1269 -9.1504 -8.1732 -0.4039 -4.7375 -1.1681
2.7008 2.7308 2.6869 1.3494 -0.8499 0.7249 2.6290 -0.8206 -0.5364 -0.4529 2.3368 -2.1516 0.7398 -0.8025 -0.5878 -0.5457 -2.0846 -2.1534 -1.8257 -0.6285 -5.3845 -2.8899 -3.5683 -2.2673 -2.1174 -4.1185 -4.6369 -2.2992 -5.7763 1.0199
4.0749 1.8836 2.8096 2.0430 -0.3910 1.5494 2.1301 0.2233 -0.7322 -0.2860 2.9560 -1.2553 1.0832 -1.2092 -0.5530 -0.6270 -1.5515 -2.4442 -1.9657 -0.5673 -3.5398 -2.8393 -2.8679 -0.8701 -1.2350 -0.5629 -2.1955 -4.6805 -4.2164 2.8894
0.5051 -0.4954 1.3126 1.8479 -0.2965 2.3463 1.0165 0.0240 0.1877 0.3642 2.3377 -0.3803 1.7493 -0.9937 -0.2395 -1.5433 -0.7557 -1.7785 -0.6810 -0.5600 -1.5575 -2.1648 -1.7351 0.7394 -1.8979 1.8859 -0.9187 -3.7697 -1.9489 1.9283
-3.7147 -2.4736 0.4685 1.6545 -0.5946 2.6097 0.6654 -0.5778 1.0804 0.3872 1.9850 -0.6388 1.9434 -0.6652 0.0581 -2.2257 -0.7123 -1.1888 0.2249 -0.8936 -1.7218 -1.7651 -1.5451 0.8628 -4.1284 -0.2716 -1.4287 -2.5981 -2.5956 -2.2443
-6.7143 -2.8085 0.5220 1.1459 -1.0791 1.3067 1.4224 -0.4857 1.2359 -0.2851 1.9248 -0.9592 1.6829 -0.1230 0.0117 -1.5954 -1.0165 -1.1214 0.2020 -0.9073 -3.5125 -1.8957 -1.5392 0.8209 -4.5763 -4.8848 -3.0601 -3.2404 -4.9132 -5.4673
