Fp1 Fp2 F7 F3 Fz F4 F8 FC5 FC1 FC2 FC6 T7 C3 Cz C4 T8 CP5 CP1 CP2 CP6 P7 P3 Pz P4 P8 PO9 O1 Oz O2 PO10
7.9188 -3.0592 -2.8903 0.8638 2.9145 0.8003 2.1348 -0.3178 0.2398 4.7453 1.3382 0.4679 -1.1738 2.1471 1.0608 2.0277 1.0646 -0.4436 3.2408 1.0355 4.2050 0.3598 1.4508 0.6262 1.6179 3.4354 -0.4859 1.1122 0.2221 0.5185
1.3546 2.9039 -1.4622 0.7124 1.9046 1.1914 1.3266 0.0728 0.2421 4.1824 2.0528 -0.1419 -1.0166 0.5501 0.4313 1.5408 0.5092 -0.7245 3.0070 1.1707 3.0274 0.2032 2.4466 0.5238 1.2938 2.2543 0.6248 2.2161 2.0741 0.6051
-1.4445 2.4690 0.9713 1.8745 0.7107 1.4173 1.6654 -0.7519 0.4007 3.3306 1.5046 -1.7851 -1.5167 -0.5947 1.5106 -5.7934 -0.6161 -0.8070 3.2875 2.0591 1.7471 0.0310 2.3978 0.7033 -1.3775 0.2350 1.8014 2.7612 2.1458 -0.5061
-0.3816 -0.1633 3.1930 3.2341 1.1537 2.3928 1.7299 -0.9919 0.8037 2.9149 1.1463 -1.8758 -1.4520 0.7151 2.0128 -8.1456 -0.3314 0.2277 3.9794 3.1674 2.1633 0.7501 2.3863 1.8194 -2.4083 -0.0389 4.4069 3.4100 1.5108 -1.7168
-1.5076 1.5870 3.6750 3.5241 2.6108 2.6906 2.1539 -0.2264 1.1118 2.9488 1.7630 -0.7076 -0.9988 2.3458 -0.4077 -0.0024 0.5481 1.1444 3.5740 2.3858 2.8909 1.3983 3.2770 2.5741 -1.0182 0.7384 6.4458 3.1071 1.1191 -1.7011
-4.6337 2.9755 0.9073 2.1518 3.3222 0.7588 3.3123 -0.7073 0.7359 3.0545 1.7255 -1.8020 -1.3729 1.7340 -2.4892 4.0350 -0.1272 0.5177 2.3323 0.5308 1.2693 0.2036 3.1594 1.9983 -0.0448 -1.0707 3.4213 -0.9655 -1.5108 -1.0240
-4.5717 0.3882 -2.7241 0.2101 3.0714 -0.9917 2.1822 -2.1442 0.1464 2.7553 0.0733 -4.2193 -1.8233 0.1639 -1.9020 -1.6040 -1.1497 -0.3475 2.0729 -0.0155 -0.7767 -1.3185 1.5392 1.0518 -0.6054 -4.1304 -1.9986 -5.7040 -5.1288 -0.6295
-1.1453 -2.5378 -3.7731 -0.5979 2.3249 -0.6582 -1.5501 -2.2219 0.3055 1.6080 -2.5224 -3.9945 -1.0596 0.0126 -1.9516 -4.4298 -0.1393 -0.0722 2.4807 0.3534 -0.1162 -0.6183 0.8777 0.5083 -1.6244 -4.3902 -3.2181 -5.3400 -4.7416 -1.4041
1.2666 -4.8422 -2.5332 0.0081 1.6450 0.0803 -2.5418 -0.8409 1.0738 0.3379 -4.3533 -2.3014 0.0248 0.8855 -4.0047 -2.0734 1.5034 0.1464 1.8318 -0.1827 1.1469 0.8364 1.6678 -0.1068 -2.3527 -3.7549 -1.0492 -2.5669 -2.1889 -3.8110
0.7819 -7.5074 -1.6093 0.5962 1.9394 0.0217 0.3052 -0.0358 1.4096 0.2226 -4.1528 -2.8368 0.0434 1.0229 -4.8341 -3.3814 1.3358 -0.4799 0.6849 -0.7468 0.2252 0.5818 1.6562 -0.3461 -1.7507 -5.6384 0.0546 -2.0878 -1.1631 -5.5624
-0.6984 -7.3079 -2.8330 -0.2061 2.9260 -0.5854 1.3017 -1.3586 0.7689 1.1740 -2.2032 -4.2589 -0.8734 0.0255 -3.2901 -6.1695 0.3021 -1.0424 0.7130 0.6467 -0.8867 -0.4666 0.5062 0.8696 0.7847 -7.3066 -0.5165 -1.3550 1.7357 -3.7251
-0.3111 -3.6829 -4.8502 -1.3309 3.1892 -1.3766 -0.0497 -3.1792 0.0101 2.4442 0.7142 -3.1233 -1.6467 -1.0524 -1.3600 -3.5310 0.3728 -1.3184 1.7327 3.0903 0.1993 -0.5624 0.1694 2.6182 3.2754 -5.3592 -1.6449 0.7292 6.4368 0.3457
2.3826 -2.0186 -3.3399 -0.2392 2.7795 -0.8393 1.4834 -2.0850 0.4047 3.8814 3.6683 -0.7143 -1.3842 -0.8986 0.4615 0.5278 1.4288 -1.4232 2.9855 4.9160 2.7301 0.4694 1.0919 3.4524 3.8959 -1.2845 -0.6973 0.7651 5.8267 2.7412
4.3000 -2.7640 2.7875 3.0974 2.9478 2.0076 4.8113 0.7793 1.4400 4.8612 5.1407 -0.3032 -0.9010 0.4252 2.7550 1.0902 2.2281 -1.0963 4.1972 6.3170 5.2429 1.9718 2.0784 3.9356 3.6462 2.4182 4.5825 -0.1133 0.8574 2.6223
4.2646 -0.7890 8.5247 5.9494 3.5256 5.5415 4.8138 0.8102 1.5888 4.3548 4.5953 -0.8338 -1.9251 1.0591 3.6976 2.0747 1.9704 -1.1555 4.1668 6.4903 6.4812 2.3914 2.5452 4.2383 3.7581 4.1133 8.3132 0.1221 -0.8761 2.0189
5.3250 2.2020 8.9995 6.1195 3.2849 7.4095 2.7619 -1.5230 1.0902 3.0864 3.7853 0.0756 -3.5646 0.0150 1.7455 4.3980 0.8136 -2.3700 2.5095 4.4890 5.1972 0.5130 1.9966 2.8507 3.8694 2.0049 3.1266 -1.9858 -0.5311 1.7636
6.9697 0.9331 4.2981 3.3535 1.9669 6.1380 2.3017 -1.9831 0.9106 3.0211 4.1839 0.6493 -3.4247 -1.1550 0.2399 1.5259 -0.5836 -3.6119 1.7953 3.3425 2.1264 -2.3808 -0.1330 0.3494 3.0735 -2.4699 -5.4716 -6.7758 -3.0841 1.2788
4.9365 -0.6860 -1.1269 -0.1053 0.5129 3.1862 1.9893 0.0208 0.6532 4.2331 3.9072 -0.5811 -1.8300 -0.8801 2.1525 -4.6154 -1.7145 -3.7198 3.3336 4.8890 -0.1391 -4.0835 -2.3088 -0.6689 1.1031 -4.5739 -7.6081 -8.4649 -5.1370 0.4732
1.4058 2.8220 -2.0344 -0.5704 0.2646 2.8263 0.0711 2.0846 0.2127 4.8897 1.2456 -0.9228 -0.7225 0.2513 3.6414 -3.5508 -1.8717 -3.2026 4.1183 4.7243 -0.6640 -4.1312 -2.2681 -0.4906 -0.7405 -3.2515 -5.0061 -5.6376 -2.2160 -0.4632
1.9605 5.7233 0.8075 2.0356 1.5848 4.3682 -0.1576 1.7912 0.2669 4.5166 -0.3838 0.3105 -1.0283 0.5989 1.3503 2.4616 -0.9520 -3.1717 2.1270 0.9788 -0.9769 -3.6118 -1.2030 -1.5860 -1.3602 -1.8694 -3.8951 -3.5608 0.8639 -1.3127
4.0939 1.8272 1.1390 3.4972 2.9179 1.9546 3.8019 -1.3940 0.3465 4.3558 1.6563 0.2709 -2.5725 -0.5552 -1.0329 2.0223 -0.3635 -3.9742 -0.3855 -1.2851 -1.8871 -3.6291 -2.0102 -3.7025 -2.1231 -2.1821 -3.7731 -5.4717 -2.1005 -2.0389
1.6078 -2.5493 -2.0457 2.1161 2.7382 -3.1101 7.0726 -3.4412 -0.0629 4.4974 2.7221 -1.0785 -3.2747 -2.0369 -0.7930 -2.6555 -0.4221 -4.5020 -1.2037 -0.3552 -2.2990 -3.9049 -3.8056 -4.3576 -3.7035 -3.5255 -2.9779 -8.2231 -6.7125 -3.2392
-3.4316 -0.4869 -3.4115 0.6651 1.7845 -3.5899 4.2771 -0.9198 -0.1069 3.9665 -0.3039 -1.4651 -1.1303 -1.8899 -0.4373 -2.5025 0.5743 -3.3015 -0.5012 0.0273 -1.3794 -3.0637 -3.4213 -2.8842 -3.9555 -4.4399 -2.7381 -7.3155 -5.0666 -4.2742
-3.5576 2.4974 -1.2691 1.1928 1.6291 -0.1003 -0.5977 2.3937 0.4662 3.0895 -2.5155 -1.0447 1.5893 -0.1049 -0.7672 0.2989 2.4183 -1.0823 0.6642 -0.7523 0.0725 -1.1486 -1.2703 -1.1013 -2.6423 -3.1592 -2.3354 -3.5902 -0.0337 -3.6207
0.7589 0.2911 1.3364 2.9645 2.3222 1.2590 -1.0555 1.9052 0.7640 2.5707 -1.5987 -1.5075 1.4528 1.0606 -0.0533 -0.3034 2.5063 -0.1071 0.7855 -1.1910 0.2488 -0.3133 -0.5425 -0.8734 -2.9059 -1.3274 -1.2722 -2.0050 0.5376 -2.9694
0.8290 -1.9901 2.1242 4.0198 2.8082 -0.1112 0.7729 -0.7184 0.6148 1.8132 -1.9199 -3.0682 -0.4369 0.4016 1.1269 -4.3722 0.4914 -0.8184 -0.5407 -2.1704 -1.5940 -1.6615 -1.6879 -2.0932 -5.6000 -3.1968 -2.6911 -4.2923 -2.5173 -4.7475
-4.6032 -0.0590 0.4239 2.6478 2.4578 -1.5054 0.3637 -1.5401 0.5852 0.6204 -3.4214 -3.7266 -0.7885 -0.5048 1.3010 -9.4009 -0.9064 -1.3997 -1.1180 -3.2116 -3.4030 -3.0729 -2.0810 -2.8412 -7.6219 -7.5727 -6.3466 -7.0007 -4.2628 -6.6609
-6.6745 0.3126 -2.2826 -0.2268 1.3945 -2.3659 -0.4914 0.7093 0.8564 0.0832 -1.4963 -2.2365 1.0044 0.1207 1.0244 -11.5204 -0.2422 -0.4445 0.6116 -2.0241 -2.8858 -2.1612 -0.4857 -1.7101 -6.9957 -8.9605 -7.3770 -7.5684 -5.6179 -6.3153
-3.0557 -4.1541 -2.7370 -1.3135 0.1855 -2.8598 0.2747 3.4580 1.2251 0.4272 2.2045 -1.2037 2.9628 1.9735 1.4160 -8.5377 1.2101 1.6925 3.0198 0.2768 -1.0881 0.3419 1.7717 0.3575 -5.2982 -7.3086 -5.3689 -7.1595 -8.7150 -5.7606
-0.7614 -7.3312 -0.3939 0.4299 -0.5104 -2.9517 0.5912 2.3976 1.5524 0.7261 3.1993 -1.8475 3.2626 3.5938 2.2887 -4.9317 2.6456 3.8245 4.2710 0.6769 -0.0315 2.6984 3.4414 1.5268 -4.3824 -6.5534 -3.1830 -6.3039 -10.7005 -5.7903
-1.6706 -5.4882 1.8419 2.3230 -0.7672 -2.8803 0.3707 -1.6447 1.8974 0.8652 2.8511 0.1763 2.4955 3.9628 2.4408 -3.8747 4.6850 5.2569 4.7662 -0.3431 1.1579 5.0560 4.2453 1.8251 -3.3773 -5.6387 -0.1122 -3.8948 -9.1233 -3.7978
-1.9253 -2.9894 1.5743 1.8172 -1.4638 -2.5144 1.3401 -1.9897 2.2490 1.3061 2.5794 5.5588 3.3316 3.4245 1.5772 -1.2083 7.2361 6.4516 5.8050 0.4941 4.4092 7.9854 4.9016 3.3647 -0.0565 -0.9075 4.8441 0.4202 -4.1875 0.7207
-1.5116 -2.4592 -0.5924 -0.4236 -2.6163 -1.4581 1.0732 3.1974 2.3557 1.8145 0.8009 8.0655 6.5738 3.4703 1.1940 4.1417 9.6606 8.0495 7.7116 4.1706 8.9892 10.8579 7.1413 7.2998 5.3783 5.7947 10.0967 6.9010 5.4691 5.1924
-1.5149 -0.0734 -0.8182 -1.3519 -2.8604 0.9991 -2.3213 7.5061 2.1577 2.0705 0.2161 6.9559 9.0345 4.3084 1.8447 7.2291 11.6154 8.9614 8.8876 7.3183 12.0263 12.3246 10.2131 10.9068 9.6975 9.5323 14.1331 13.3444 16.2729 8.0611
0.5415 5.2935 3.6176 0.7491 -1.5101 5.4438 -4.6316 7.0507 1.9840 2.0282 2.8750 7.8758 7.9375 3.9237 1.6252 7.3190 12.0959 7.4994 7.3646 7.0000 12.1836 11.3169 10.0915 10.4938 10.7788 9.5358 15.1679 14.1148 17.1793 10.1353
5.3233 8.0206 8.7267 3.6779 0.3055 9.7175 -2.8710 4.8648 1.9834 1.5789 3.6909 10.8326 4.9197 1.5757 0.0409 7.2220 10.5901 4.4999 4.0682 5.1327 11.2179 8.5837 6.2119 7.1853 9.9151 8.9141 12.5382 9.3360 7.8302 11.8562
8.5254 6.0401 8.6716 4.0792 1.1902 9.6741 0.7723 3.9537 1.7764 1.4084 2.7318 11.9942 2.9525 -0.4033 -0.0376 6.5430 8.5961 2.2115 2.0491 4.4515 11.0563 6.2648 3.1153 5.2348 9.1893 9.7972 9.7943 6.4133 1.9223 12.2444
6.8266 4.4633 5.1489 2.2598 1.3276 5.4818 4.7511 4.9581 1.1032 2.3951 6.4477 11.3674 2.5997 -0.3200 2.5820 5.4255 7.2460 1.0794 2.3635 4.4599 11.0514 5.1579 2.9730 5.7169 9.1303 11.1031 9.6413 7.8662 4.6078 11.7841
3.8496 4.5232 4.0173 1.5864 1.9948 2.6743 7.8208 7.3103 0.5199 3.4695 10.4725 9.6780 2.9113 0.5371 4.5603 6.9135 6.1679 0.5921 3.4739 4.3507 10.0262 4.7186 3.4824 6.4608 9.2121 10.5919 9.5344 9.5406 8.2988 11.8787
5.0214 2.4821 5.4117 3.0306 3.0864 3.9021 7.3726 7.9604 0.6310 3.2643 6.5286 7.1783 3.0626 0.6696 3.8586 10.3425 5.7620 1.0127 4.2353 4.8250 8.8487 4.7868 3.2746 6.2428 9.2651 8.5419 7.3964 9.3712 9.0220 11.6881
8.3779 0.3419 5.8372 4.0861 2.8828 6.0512 4.7805 5.4075 0.9958 2.7599 1.3302 6.7062 2.7821 0.2436 3.2987 10.7028 6.4771 1.9296 4.9655 6.0910 8.3611 4.6830 2.9617 5.6201 9.3427 6.8164 4.8209 7.5937 7.7508 10.4084
9.9564 2.2151 6.3813 4.0757 1.3013 7.5704 4.0398 3.4758 1.0724 2.9570 4.0079 9.4121 2.2501 -0.3731 4.2517 7.5250 6.6299 1.6518 5.5928 6.6604 7.4286 3.1019 2.0878 4.6982 8.2281 5.4433 2.7173 3.9788 3.6860 8.9277
11.4798 5.0841 9.3551 4.9024 0.6157 9.7912 4.9145 4.8015 1.2838 3.0513 9.4979 11.5461 1.6508 -0.9044 3.9742 6.3432 4.9823 -0.1795 5.3300 4.7190 5.4646 0.7221 0.2965 2.9702 5.4840 4.5111 0.8465 0.5844 -1.2243 7.2545
11.9857 5.7711 11.3117 5.8630 1.6597 10.8892 5.2108 6.4105 1.7399 2.8658 10.4776 10.0984 1.2031 -0.7144 2.5823 7.9715 2.9814 -1.7377 4.5034 1.6505 3.3600 -0.4603 -0.7964 1.4004 3.7563 4.9908 0.4115 0.4035 -1.4629 5.3819
7.1160 6.2573 8.8897 4.8130 2.5531 8.3183 5.2031 5.3114 1.7343 3.0698 7.8864 6.9238 0.9397 -0.3612 3.2808 6.9237 2.0033 -1.9234 4.0801 1.1371 1.3894 -0.3567 -0.6003 1.2974 4.1593 5.1631 2.3607 2.4433 1.8770 4.5888
1.8605 6.5414 5.3480 2.9782 1.9912 4.9974 5.3078 3.0022 1.3871 3.2159 4.3884 5.9499 0.8324 -1.0083 4.9253 4.2417 2.2176 -1.2502 4.1046 3.0408 0.4066 0.4408 -0.2698 2.1785 4.8217 4.1623 5.9140 4.5446 2.7824 5.6911
3.9927 4.8395 4.4365 2.4092 0.7694 5.1010 4.7158 2.8906 1.5185 2.7499 1.7051 8.3169 1.7803 -1.5800 4.1116 6.5144 4.0195 0.2269 4.3749 4.2058 2.1931 2.4861 0.6287 3.6239 6.4048 5.6012 9.1447 7.1517 2.9718 8.4657
9.2522 2.8361 5.3262 2.7908 0.1578 7.2528 3.7863 4.9260 2.0871 2.3130 2.3108 10.8646 3.8823 -0.5839 2.1706 10.5049 6.6083 2.1637 4.7165 4.3288 5.1826 4.7779 2.5171 5.4265 9.2736 9.4264 9.3724 9.0877 6.4059 10.5867
9.7121 2.1369 5.7711 3.3945 0.7641 7.1392 3.7682 5.6008 2.5261 2.6371 5.2963 10.2858 4.9047 0.7174 2.5158 7.3967 7.5665 2.7517 4.6798 4.5834 5.6297 4.9829 3.2726 5.8267 8.8783 10.0152 6.6664 7.6586 7.8531 8.9016
5.8582 2.3897 4.4069 3.3674 2.0982 4.6335 3.6518 4.7366 2.6366 3.4945 5.2980 7.6524 4.2874 0.8341 4.5730 0.4263 6.3986 1.8856 4.5678 4.3855 3.9231 3.7860 2.1402 4.6912 4.5934 6.9095 4.9189 5.0255 4.0396 5.3264
2.1441 4.3009 1.7936 1.8176 2.8127 3.8640 1.0683 5.3670 2.4425 3.8429 0.4937 6.5061 4.3396 0.4224 4.8656 -0.1877 5.1629 1.9055 4.8655 3.4134 3.2435 3.6117 1.2817 4.5259 2.7793 4.9743 5.3184 4.8468 1.5990 4.4571
0.8379 6.6751 0.6021 0.5241 2.4142 5.3117 -2.1736 5.8530 2.0278 3.1523 -3.5866 7.2165 4.6170 0.0471 2.4191 4.4293 4.6833 2.7145 4.5717 2.2537 3.5491 3.8976 1.3577 4.9393 3.7926 4.5851 4.8900 5.2520 2.3668 4.7750
1.5682 5.2984 1.7472 1.9325 1.8937 4.3326 -0.9138 2.6100 1.5443 2.3833 -2.5297 6.7180 2.3950 -0.5444 -0.1327 5.4082 3.6701 1.6908 2.6027 0.4819 2.6267 2.6586 0.7756 3.0184 1.2948 2.8735 2.7636 3.2409 -0.0286 2.1674
2.4860 0.5802 3.0534 4.4139 2.0462 0.5385 3.9607 -1.4915 1.2948 2.2193 0.6077 4.4859 -0.6088 -0.9058 -1.1065 2.2661 2.2275 -0.3949 -0.0011 -2.1207 0.8990 0.8661 -0.7060 -0.1755 -3.4785 0.8434 0.9258 0.5140 -5.1878 -1.3872
2.8698 -1.5269 3.4508 4.6716 2.3970 -0.4193 5.0924 -1.2505 1.7278 1.8937 1.8569 3.7087 -0.1283 -0.7874 -0.9662 -0.1864 2.2815 -0.2120 -1.0701 -3.6335 0.5674 0.8547 -1.5285 -0.9703 -3.7702 1.1622 0.5884 -0.1135 -6.2376 -1.8954
3.7410 0.7499 3.8707 2.8872 2.1552 2.8715 1.0355 3.1344 2.8038 1.4340 2.4452 5.4909 3.4217 -0.8292 0.6216 -2.1814 3.8122 1.8519 0.2375 -2.3002 1.8188 2.2384 -1.0222 0.5652 -0.6672 3.0112 1.9451 1.1129 -3.5062 -0.3379
5.1762 2.7839 4.1185 1.5322 1.3571 5.1779 -1.5695 7.0183 3.7099 1.8960 4.0790 7.7435 5.9169 -0.7573 2.7115 -3.1163 5.0080 2.9807 2.5334 0.3302 3.3428 3.1916 -0.1543 1.5507 0.3021 3.8709 4.4871 2.5773 -2.7938 0.4898
5.2188 2.5712 3.7632 1.7456 0.5650 4.0105 -0.0708 6.2153 3.7147 2.5293 4.3479 8.8684 5.2301 -0.0891 1.7358 0.2686 5.2203 2.7811 3.1862 0.8311 4.3052 3.2437 -0.2239 0.7133 -0.8212 3.1742 6.1269 2.9627 -4.2782 0.6470
2.0738 3.1519 3.4013 2.4767 0.0482 2.3030 1.5304 1.7844 2.7660 1.7758 0.6858 7.8675 2.5927 -0.2816 -1.9158 2.8928 3.9920 1.8450 0.8624 -1.6979 3.7169 2.1820 -1.8801 -1.4035 -1.6214 1.8814 4.8008 1.2680 -4.4909 1.4127
-2.6525 4.2571 1.0457 1.1403 -0.3445 0.7448 1.2131 -1.3849 1.2215 0.4709 -4.4664 4.7073 0.3045 -2.1130 -3.0906 -2.3942 1.0036 0.1630 -2.2175 -3.8906 1.3236 0.1424 -3.9981 -3.1502 -2.0412 0.9599 1.8810 -0.9888 -3.5485 2.3051
-4.0910 1.4926 -4.9911 -2.9008 -1.0902 -2.6065 0.3987 -2.2877 -0.1483 0.1543 -6.0039 2.0062 -0.6041 -3.3380 -0.9416 -9.2002 -1.5578 -0.9940 -2.7944 -2.4530 -0.7537 -0.9628 -4.3599 -2.7821 -1.8122 0.9159 0.7396 -0.9697 -3.3702 1.5966
-0.3936 -3.8151 -8.5262 -5.3306 -2.2046 -4.8847 -0.5202 -2.8159 -0.3066 0.1732 -3.6054 1.2195 -0.5764 -2.5645 -0.2492 -7.4272 -1.9544 -0.5504 -1.7567 -0.1006 -1.1680 -0.5060 -3.3555 -1.7862 -1.0451 0.8683 0.9852 -0.5140 -4.7179 -0.8293
3.4073 -4.9510 -4.0046 -2.8464 -2.6255 -2.3495 -2.2022 -2.1087 0.8107 -0.5800 -2.4544 0.1958 -0.1775 -1.3594 -2.8781 -0.5731 -1.9752 0.1534 -2.3868 -2.2149 -1.4479 -0.5591 -3.6138 -3.3924 -2.2890 -0.5487 -0.3438 -3.1313 -7.4048 -3.0404
2.2319 -1.5909 1.5694 0.4496 -2.2177 0.6302 -4.2318 -1.0709 1.8064 -1.5672 -4.4666 -1.6765 -0.1489 -0.6924 -5.4933 1.8261 -2.8504 -0.0851 -4.1790 -6.9903 -1.8970 -1.3736 -4.9329 -6.2027 -5.6621 -2.1217 -2.0095 -5.8015 -9.1976 -4.0848
-1.9573 -0.0385 0.0303 -0.4162 -2.4414 -1.3690 -4.8655 -3.0730 1.5558 -1.9734 -5.1478 -2.4379 -1.3063 -0.3210 -5.6227 -0.7268 -3.5558 -0.7293 -4.5283 -7.6440 -1.1057 -1.3536 -4.9250 -5.9723 -6.8566 -1.9097 -1.2162 -4.6445 -8.1791 -4.7449
-3.8904 -2.0147 -4.3085 -3.3056 -3.0069 -4.7462 -3.2155 -5.5139 0.7152 -2.0569 -2.4756 -2.4832 -2.7920 -0.9833 -4.4983 -2.7455 -4.4675 -1.4278 -4.1473 -4.5278 -0.6343 -1.5045 -3.9017 -3.5064 -4.8317 -1.9223 -0.6079 -3.4193 -6.8204 -5.1330
-2.0578 -3.4689 -4.7553 -3.9455 -2.1529 -4.0310 -2.0197 -4.2174 0.5164 -2.4388 -1.4435 -3.1327 -2.9913 -2.2575 -4.0225 -2.5687 -5.9981 -1.9604 -4.6431 -3.5592 -2.2900 -2.8741 -3.4939 -2.8068 -3.7276 -4.0836 -2.8410 -5.4597 -7.6536 -4.6733
0.3714 -2.5065 -3.1976 -2.9195 -0.7801 -0.7992 -4.4113 -2.1888 0.9257 -3.1493 -5.4123 -2.9813 -1.9150 -1.6434 -4.5097 -1.5200 -5.7097 -1.2188 -4.6679 -4.6496 -3.0840 -2.9222 -2.9501 -3.2692 -4.2041 -4.9237 -3.9657 -6.2741 -7.9060 -3.6624
0.0497 -1.0632 -2.9490 -2.4947 -0.9518 0.8526 -7.7719 -2.1466 1.1954 -3.4623 -9.4964 -1.6792 -0.3172 0.5321 -4.9864 -0.6530 -2.8191 0.8287 -3.2416 -4.0490 -1.1583 -0.5691 -1.2886 -1.9027 -3.1699 -2.7057 -1.4394 -2.6717 -4.4730 -2.7483
-2.1858 -1.1651 -3.2673 -2.5025 -1.9900 -0.4490 -7.2640 -1.8436 1.1619 -2.7326 -7.5618 -1.5734 1.0810 0.9137 -3.9138 -2.3209 -0.6867 2.2445 -2.1090 -2.9762 0.0914 1.2317 0.3430 0.0971 -1.8738 -1.5163 1.1546 1.3848 -0.0497 -2.3624
-3.0341 -2.8169 -3.7990 -2.5895 -2.1480 -3.6944 -3.4685 -1.2877 0.9508 -1.4611 -1.2013 -2.3790 1.0853 -0.7113 -1.2973 -6.6904 -1.1577 2.0122 -2.1508 -2.9973 -0.6192 1.0856 0.9112 0.2978 -3.0367 -2.1972 2.1279 2.2810 0.2825 -3.0023
-1.7238 -4.5065 -4.8092 -2.8864 -1.1025 -5.9879 0.1103 -2.0483 0.5818 -0.6595 2.8678 -1.9818 -0.2245 -1.5782 0.1328 -7.6796 -2.5380 1.4134 -2.3323 -1.7077 -1.2091 0.1456 0.5538 -0.4448 -4.4100 -2.0721 1.8826 0.4264 -4.2480 -4.1838
0.0879 -5.1454 -5.1906 -2.3963 0.6627 -5.6341 1.9339 -2.7264 0.2539 -0.5578 1.3920 -1.7852 -0.9632 -1.2869 -1.2292 -2.1468 -3.4694 1.7745 -2.5814 -0.3749 -2.2864 -1.3576 -0.5436 -1.2872 -4.1265 -2.8258 -1.4591 -2.6615 -9.2519 -3.8610
0.8761 -3.8341 -4.8269 -1.2616 2.2079 -4.1009 0.7030 -2.0593 0.0782 -0.9587 -2.9944 -3.0034 -0.3137 -1.1926 -3.0323 2.1014 -3.6968 2.6187 -3.3140 -3.2397 -4.3314 -2.6862 -1.5180 -2.7103 -4.4188 -5.1280 -5.7397 -4.3292 -10.0684 -1.3543
-0.4982 0.2809 -4.7109 -1.4916 2.4133 -2.2792 -3.6322 -0.9289 -0.2229 -1.6267 -6.3980 -2.6081 0.3439 -1.2294 -2.9130 -1.6116 -3.2981 2.3616 -3.5933 -6.9958 -4.7082 -2.3260 -1.3102 -3.3321 -5.8123 -4.5927 -5.3769 -2.8915 -7.2529 -0.0302
-2.6694 3.4891 -5.2554 -2.9224 1.2703 -0.7925 -6.6402 -1.2182 -0.8192 -1.8174 -7.8941 -0.0874 -0.6510 -1.0832 -1.7195 -7.1115 -3.4072 0.4219 -3.1241 -5.9062 -3.6675 -1.6226 -0.9663 -2.3435 -6.6096 -2.0541 -2.6757 -1.5927 -6.2028 -3.1731
-1.6985 -0.0482 -6.5119 -3.2015 -0.0831 -2.1926 -4.6732 -3.9697 -1.3812 -1.0942 -8.3335 0.0995 -3.0260 -1.0547 -0.6899 -6.8193 -4.7256 -1.6249 -3.2142 -3.1227 -4.2492 -2.5979 -1.9334 -2.0888 -7.1316 -2.9338 -3.2953 -3.0961 -8.8627 -7.5454
1.5555 -6.3960 -7.1933 -2.2389 -0.7290 -5.5412 -0.5347 -5.5730 -1.4056 -0.2193 -7.1315 -2.4760 -3.9675 -0.5706 0.5679 -2.8334 -5.8528 -1.6496 -3.6498 -3.0686 -5.3580 -3.6336 -3.0161 -2.8908 -7.3381 -4.8024 -4.3452 -3.6854 -9.7595 -7.1101
1.1541 -6.0343 -5.6423 -1.8401 -0.7249 -6.1188 1.6430 -1.9624 -0.7843 0.0575 -3.7758 -3.2697 -1.6861 0.6844 1.9299 0.8582 -5.3432 0.0302 -2.6095 -2.9912 -4.2671 -2.9908 -2.7722 -2.0817 -5.5699 -2.3954 -2.0188 -1.0632 -5.8248 -2.9153
-2.7318 -1.1456 -3.2499 -1.8212 -0.7271 -4.3152 2.2824 2.0649 -0.0138 0.0517 -0.2050 -1.9696 0.7337 1.2058 2.4824 2.5059 -3.6994 0.5219 -0.6035 -0.8953 -2.6005 -2.1245 -1.9421 -0.0261 -3.0368 0.6750 -0.3508 0.6579 -2.1283 -0.8847
-3.5591 0.1250 -1.9199 -1.0926 -1.1989 -3.7316 2.8071 0.7750 0.2661 0.1610 2.4374 -1.2845 0.0097 0.2406 2.4568 0.7046 -2.2539 -1.3791 -0.0476 0.8182 -2.1561 -1.8132 -1.1380 0.8579 -2.1174 0.3744 -1.0012 0.2137 -1.7074 -1.2238
-0.3333 0.0071 -0.5749 -0.7388 -1.9405 -2.5328 1.2754 -0.7320 -0.0736 -0.2126 3.9321 -0.3891 -1.5245 -0.6364 2.0256 -1.3090 -1.8954 -3.3037 -1.2409 1.2589 -1.3892 -1.2109 -0.6823 0.6406 -1.7879 0.3575 0.1804 1.1429 -1.4628 -0.1764
2.0431 2.2992 0.8544 -1.7127 -2.2132 1.2528 -3.2634 1.3000 -0.5862 -1.6247 1.4420 0.7278 -1.3671 -0.5703 0.2968 -0.4020 -2.8673 -3.6316 -2.6122 1.0953 -0.7044 -1.1980 -1.9559 -0.0494 -0.8966 1.5292 1.7863 2.6570 -0.6615 1.6375
1.7513 2.2716 -0.2762 -2.7760 -1.6083 2.7676 -6.2105 0.4943 -0.7732 -3.0744 -4.3859 -0.3694 -1.5791 -0.7378 -2.1478 0.0098 -4.1728 -3.3365 -3.5237 0.3614 -2.0957 -2.2632 -4.0743 -1.1826 -0.2391 0.0431 0.0630 2.1134 -0.9187 2.2153
0.1067 -1.4578 -4.4087 -3.7463 -0.9874 -1.4225 -4.0343 -4.0509 -0.6599 -3.3309 -6.7454 -1.7980 -2.7586 -1.6434 -3.2532 -1.3581 -4.2277 -2.7930 -4.1416 -0.3491 -3.2758 -2.2420 -3.8743 -1.6954 0.1033 -2.0070 -0.7171 1.9699 -0.9329 2.4238
-1.8827 -3.7591 -8.2495 -5.3299 -1.3722 -6.5527 -0.7651 -5.1322 -0.6244 -2.8565 -4.6429 -0.7768 -2.5060 -2.3183 -2.7282 -2.6701 -3.2247 -1.7500 -4.3533 -0.8691 -1.8625 -0.8585 -2.1372 -1.6201 -0.5726 -0.8030 2.2112 2.9819 -0.6508 1.6434
-2.0099 -3.8534 -8.3389 -5.5479 -1.8238 -6.9901 -0.5407 -2.7981 -0.5833 -2.5205 -3.5692 0.5739 -1.2269 -2.1780 -2.3983 -4.4629 -2.6287 -0.8954 -4.2934 -2.0699 -0.5344 -0.5060 -2.1373 -2.3725 -2.9996 0.4628 2.8515 1.2546 -2.7133 -1.2168
0.9160 -3.6844 -5.0300 -3.1244 -0.7301 -3.6574 -0.8692 -1.7167 -0.1518 -2.0454 -3.4340 1.3236 -0.7047 -1.3695 -3.0923 -4.0145 -2.2217 -0.1632 -4.0676 -2.9583 -0.8920 -0.8576 -2.4440 -2.6935 -3.9366 -0.5257 -0.0689 -1.3534 -4.8673 -2.4341
3.2056 -2.7509 -2.2071 -0.9388 1.2350 -1.2566 0.9596 -0.7237 0.4596 -1.0512 -0.6162 2.5814 -0.1038 -0.3688 -2.8598 0.2439 -1.2761 1.1483 -2.9258 -1.2553 -0.8389 0.1243 -0.0701 -0.2791 -1.2172 -0.4913 -0.2094 1.0283 -1.8578 0.3515
1.8008 -1.9902 -1.5776 -0.8551 2.1599 -1.6405 3.1643 1.5319 0.7144 -0.1630 3.4417 2.1862 0.8083 -0.0876 -0.5545 1.8823 -1.3287 2.1572 -0.9514 1.7627 -0.4622 1.2841 2.7572 2.9025 0.8527 0.7192 2.2037 4.7261 3.0050 2.1373
-0.7633 -2.6920 -1.6650 -1.4878 1.5174 -2.6345 3.1324 2.0647 0.5535 -0.2918 3.9583 -0.1569 0.4969 -0.4529 1.1366 0.0954 -3.0733 2.0980 0.2443 2.3870 -1.2568 1.0513 2.9903 3.4155 -0.6029 -0.3024 1.6404 1.9237 1.4658 -0.1554
-2.1504 -3.0689 -2.2622 -2.2682 -0.1735 -2.6492 0.0790 0.0626 0.2681 -1.4162 -0.5996 -1.0805 -0.3564 -0.0116 0.3136 1.6421 -3.8247 2.2626 0.4479 0.6059 -1.8243 1.0777 2.1661 2.0580 -1.9776 -2.6961 -0.6793 -3.7312 -3.9513 -2.3134
-3.3456 -2.7774 -3.0574 -3.0847 -2.0085 -2.6993 -4.0439 -2.0509 0.0274 -2.8879 -5.0790 -1.4263 -0.2522 1.0085 -1.4245 4.5487 -2.5578 3.0996 0.6885 -1.4253 -1.2859 2.0392 1.8431 0.9162 -1.5365 -3.4225 -0.8015 -4.2863 -4.0747 -2.6659
-4.0969 -3.5247 -2.2828 -2.6870 -2.6465 -3.2252 -5.4753 -3.8160 -0.1176 -4.3138 -4.4574 -3.0931 -0.4689 0.5713 -2.9646 1.8865 -1.9116 2.8994 0.2869 -3.7177 -1.6320 1.6334 0.8239 -0.5875 -2.4470 -3.1244 -0.3636 -2.4763 -0.8290 -4.2900
-3.3364 -3.9688 -1.1270 -1.6026 -1.9166 -3.1257 -3.5857 -5.2370 -0.1034 -4.9783 -2.3103 -2.8764 -1.6242 -1.0544 -3.8656 -3.9523 -2.5597 1.4255 -1.2590 -5.3416 -2.9736 -0.2520 -0.5433 -2.2883 -4.8409 -3.2639 -1.4077 -3.9612 -2.2846 -5.9137
-2.0197 -2.8223 -2.0168 -1.9168 -1.2865 -2.4370 -1.9920 -3.3949 -0.0299 -4.1986 -3.2781 -0.2090 -1.1851 -1.7579 -3.1919 -5.7561 -2.3923 0.7525 -2.2981 -4.6857 -2.6302 -0.7830 -0.6684 -2.5150 -5.3026 -2.6656 -1.6380 -5.6893 -6.5818 -4.1579
-0.3391 -2.7204 -2.8616 -2.8996 -1.2755 -2.0270 -2.7232 1.8332 0.0053 -2.9554 -4.4162 0.4627 1.2807 -1.5620 -2.1843 -2.9063 -1.3295 1.5456 -2.1878 -4.1584 -0.3454 0.4997 -0.6167 -2.3299 -4.3878 -0.9253 0.0956 -4.2583 -8.2969 -1.8270
2.1850 -4.2561 -0.6647 -1.8410 -0.8104 -1.6811 -3.1608 4.4665 0.3808 -2.4388 -2.4209 -0.4530 2.4437 -1.5462 -2.3474 -0.3446 -0.7066 2.2119 -2.0660 -5.4249 1.1534 1.4142 -1.5974 -3.4889 -5.1131 -0.2300 0.9959 -3.4048 -9.1553 -2.6999
3.3440 -4.5572 1.9088 0.6203 0.2383 -1.9181 -0.8639 1.8769 1.2417 -2.0320 0.3516 0.9366 1.3638 -1.4252 -2.3319 -0.1147 -0.0353 1.9278 -2.2318 -5.4958 1.1351 1.5377 -2.0285 -4.2167 -6.3872 -0.8964 0.0380 -4.9620 -10.2597 -4.2679
1.6459 -3.7402 0.5088 1.1009 0.7690 -3.9321 1.3367 -1.2820 1.6667 -1.3516 0.3727 2.7345 0.4908 -1.2936 -1.7233 -0.9497 1.0544 1.5443 -2.6154 -4.0261 1.4517 2.0275 -1.0561 -3.1089 -6.1608 -0.3971 0.1285 -4.7842 -8.6101 -3.5825
-0.9751 -3.1524 -2.9302 -0.5317 0.5658 -5.8045 -0.4409 -2.1041 0.9828 -1.4618 -2.7674 1.5058 0.3751 -1.8624 -2.1166 -3.6227 1.1116 1.5501 -3.5386 -4.2610 2.2716 2.4927 -0.2114 -2.4745 -6.3536 0.9208 1.5063 -2.2369 -6.0314 -2.9940
-3.6382 -1.4080 -3.4989 -1.3535 0.2014 -5.1590 -3.6360 -1.8179 0.0301 -2.3481 -6.0472 -0.4412 0.0369 -2.1408 -2.8467 -7.2851 -0.0989 1.6079 -3.9927 -5.4847 1.9901 2.0126 -0.0451 -3.6137 -8.3048 -0.0405 0.2769 -2.1793 -7.4429 -4.7905
-6.4610 0.8398 -1.5494 -0.6497 -0.1228 -4.0164 -3.3279 -0.9373 -0.1231 -2.5584 -6.2510 -0.6436 0.0829 -1.0575 -2.6007 -5.9068 -0.7415 1.8100 -2.7805 -5.1854 0.6621 1.4161 0.3398 -4.5812 -9.3483 -2.5939 -3.4711 -5.5060 -11.6031 -6.7962
-7.0813 0.8614 -0.2560 0.2280 -0.1707 -4.1461 -1.0644 -0.4437 0.4026 -1.9558 -4.0758 -0.8506 0.6444 -0.0563 -2.9699 1.3211 -0.1800 2.3962 -1.2108 -4.7465 -0.4220 1.7050 1.0548 -4.1226 -7.4898 -3.2849 -4.6440 -7.0808 -12.5635 -6.2379
-4.5443 -0.2729 -0.3102 0.4514 0.2635 -3.5677 -0.8646 -1.3152 0.9011 -1.5963 -2.5023 -1.3255 0.7976 -0.4415 -4.3361 5.5580 0.3248 3.0806 -0.7525 -5.0604 -0.9123 2.2902 1.8679 -2.6872 -4.3698 -1.8081 -1.9375 -4.2819 -7.9708 -3.5482
-1.9730 -0.9033 -1.8284 -0.4717 0.8119 -2.4319 -1.2661 -0.6066 1.0543 -1.1841 -2.2789 -0.3443 1.2132 -1.0237 -3.6995 2.2355 -0.2278 3.4754 -0.5286 -4.1742 -1.3739 1.9390 2.4678 -1.2982 -3.4446 -1.1320 -0.0961 -1.7406 -3.6665 -2.0828
-1.7000 -2.6439 -4.4343 -1.7524 1.2371 -3.7238 0.2681 2.4303 0.8279 -0.0852 -2.3406 0.0561 2.0109 -0.9475 -1.2325 -2.6735 -1.7399 2.9632 -0.4344 -3.1180 -2.8794 0.0583 1.4478 -1.9588 -6.6766 -3.9610 -2.5657 -4.2601 -6.7755 -4.6275
-2.9921 -4.8848 -5.4854 -1.6347 1.4820 -6.4242 1.2449 2.1062 0.2551 0.2670 -2.3475 -2.4157 1.1484 -0.9566 -0.9568 -4.1440 -3.1095 1.3508 -1.7195 -4.3848 -5.5517 -2.2010 -1.0272 -4.5678 -10.6814 -8.8697 -6.4005 -8.0633 -12.5786 -8.6816
-4.1014 -4.4825 -4.5964 -1.0925 0.9440 -6.8035 -0.9966 -2.4027 -0.2573 -1.2322 -2.4942 -4.4004 -0.7369 -1.0204 -2.3394 -4.1374 -3.1002 0.2883 -2.9187 -5.3194 -7.3271 -2.6331 -1.6855 -5.2435 -10.2942 -10.6549 -6.9445 -7.0761 -11.1542 -9.2508
-3.6785 -2.2065 -4.7348 -2.1305 -0.3644 -5.1961 -4.4451 -4.4196 -0.2289 -2.8487 -3.2178 -3.1103 -0.6910 -0.9100 -1.8312 -5.0849 -2.2969 0.8465 -2.2147 -3.4881 -7.2349 -1.6240 -0.1338 -3.4628 -7.7207 -8.3550 -5.4287 -4.3813 -6.5753 -6.9040
-1.5254 -0.5878 -5.1866 -2.7857 -0.7495 -3.5015 -6.3957 -2.7916 0.1521 -3.1079 -5.0543 -1.5668 0.1793 -1.7226 -1.8118 -5.8277 -2.6453 0.8162 -2.3919 -3.1527 -7.3845 -2.1530 -0.6385 -4.1138 -8.8127 -7.1395 -5.9548 -5.1329 -8.5375 -5.9597
1.7746 0.4331 -2.7627 -0.7664 0.8603 -0.8518 -6.7717 -1.5246 0.4491 -2.8399 -6.9040 -2.0337 -0.7665 -3.4112 -5.3834 -4.9391 -4.3215 -1.4907 -5.7413 -6.6012 -8.6273 -4.7316 -3.9321 -7.9768 -12.0654 -8.8096 -7.7633 -6.2232 -12.7325 -7.1215
4.3951 0.7731 0.2621 1.2959 2.8136 1.5915 -5.5681 0.0390 0.6549 -2.6121 -6.2026 -2.6195 -1.7286 -4.1662 -7.9422 -2.7832 -5.4721 -3.9696 -8.7675 -8.9862 -9.1812 -6.8972 -6.1114 -10.2568 -12.5238 -10.1274 -8.6641 -5.4327 -11.5829 -8.5692
3.0596 0.4267 0.2003 0.8237 3.1652 0.1846 -2.1898 2.6853 0.7497 -2.0054 -2.3981 -2.0667 -0.8303 -3.7215 -5.6750 0.5349 -5.3185 -4.4850 -8.2243 -7.9697 -8.6931 -7.4299 -6.4366 -9.3545 -10.5842 -10.1001 -9.5606 -6.4057 -8.5410 -9.1387
-1.3810 0.8444 -0.8998 -0.0738 2.4529 -3.2358 1.3583 2.4156 0.6193 -1.3648 0.7043 -1.1979 -0.3604 -3.2292 -2.7944 4.4268 -4.7846 -3.5798 -5.9037 -6.4314 -8.0427 -6.6527 -6.6405 -7.3314 -8.5831 -9.3355 -9.6990 -8.2510 -7.5963 -7.5945
-3.0031 1.1942 -0.5926 0.4952 1.9187 -3.6397 1.9214 -1.3497 0.5268 -1.5208 -1.1492 -0.6832 -1.5978 -2.8424 -3.0187 6.3291 -4.3862 -2.3984 -4.4316 -5.6646 -6.9476 -4.9447 -5.9281 -5.4664 -6.9967 -7.4019 -8.1010 -7.9461 -8.2048 -4.7771
-1.0879 0.0877 -0.0890 1.1995 1.3960 -1.9766 1.0087 -3.2777 0.5812 -2.1176 -4.7680 -0.8750 -2.4316 -2.4907 -4.0270 5.5260 -4.1805 -1.6516 -3.9328 -5.2182 -5.8347 -3.6426 -3.7653 -4.8163 -6.5576 -5.8070 -8.3127 -8.4489 -11.3187 -3.9037
-0.7495 -0.4625 0.4963 1.2222 0.7038 -1.7898 2.5509 -0.6516 0.4817 -1.7731 -2.4644 -2.2712 -1.6589 -2.3885 -2.9082 4.2043 -4.6070 -1.6274 -3.1857 -4.6143 -5.9684 -3.8942 -2.0302 -5.1863 -6.8125 -6.0768 -10.8647 -9.8794 -14.5551 -4.2297
-1.7793 0.4600 1.6679 0.9879 0.2948 -1.7396 4.1718 3.1093 0.2724 -0.6836 3.2261 -4.2986 -0.2961 -2.0729 -0.5100 3.5831 -5.2128 -1.4900 -1.5814 -2.9621 -6.4374 -4.3590 -1.3194 -4.2087 -5.3091 -6.2782 -10.7126 -7.1824 -11.9556 -2.1125
-0.4421 0.9768 1.2986 0.0199 -0.1541 0.3230 0.3663 3.1921 0.1521 -1.0851 1.8367 -4.5238 0.3460 -1.4848 0.4950 4.1125 -4.4454 -0.4088 0.3226 -1.2177 -5.2360 -3.1755 -0.1081 -1.5654 -1.9819 -4.9178 -7.4411 -1.8718 -4.7331 0.7691
1.4545 0.8894 -0.8472 -1.5132 -1.0094 2.2126 -5.6044 -0.1380 0.0119 -2.9023 -4.4746 -1.8341 -0.0081 -1.1759 -0.0165 5.3883 -2.2771 0.9319 2.4188 -0.5712 -2.7118 -0.8425 1.8385 0.6321 0.3801 -3.2020 -4.9382 0.8110 0.8528 0.8443
1.0011 0.6322 -1.8028 -2.1522 -1.3718 1.6257 -5.9443 -1.6695 -0.1532 -2.9643 -4.2930 0.6486 -0.4327 -0.7284 0.2591 4.4961 -0.9579 1.2203 4.6239 0.4373 -1.2237 0.6512 2.6646 1.5766 0.4128 -2.4772 -3.7733 0.9101 2.1864 0.0637
0.4834 -0.1931 -1.9072 -2.2277 -0.7862 0.0382 -2.7919 -0.5947 -0.4052 -1.0768 0.3139 0.2931 -0.8520 0.0977 1.1580 2.1012 -1.5582 -0.0192 4.7766 1.7211 -1.4399 0.4430 1.6829 1.5294 0.0010 -2.7261 -3.1252 -0.4048 0.0138 1.0563
1.3732 0.1757 -3.2990 -3.1301 -0.2209 -0.3945 -3.1362 -1.0743 -0.8819 -0.4804 0.0752 -0.6284 -1.9360 0.2474 0.9166 3.2461 -2.0913 -1.8308 2.2275 1.3545 -0.9291 -0.2195 0.6581 0.9942 1.6381 -1.9381 -2.8417 -2.3789 -2.4381 2.8238
0.6327 2.8215 -3.3153 -3.4751 -0.0475 0.0089 -4.3723 -1.8617 -1.0252 -1.2958 -1.8829 -0.0173 -2.4835 -0.4462 0.9718 5.7686 -1.2886 -2.7151 0.4944 0.8218 1.5350 -0.0309 0.4604 0.8011 3.5307 1.0618 -1.9620 -2.5212 -2.8425 3.7200
-1.4239 4.2793 0.7259 -1.2175 0.1314 0.2249 -1.5409 -0.1051 -0.3977 -1.2919 0.2187 0.7787 -1.9246 -0.8585 2.1863 4.0770 -0.7560 -2.7037 0.6350 1.4986 3.5197 0.4244 -0.1997 0.3133 1.4689 3.4766 -0.8308 -1.9379 -4.7495 2.3150
0.1447 2.6025 5.0098 1.6242 -0.3488 0.6509 0.6926 0.4176 0.1953 -1.1768 2.5200 1.3760 -2.0602 -0.6770 1.4365 2.6593 -0.9693 -2.7244 -0.4234 0.6243 3.6521 0.5966 -1.2975 -1.1360 -2.3571 3.6454 -0.4825 -3.5825 -9.2515 -0.3413
3.9871 0.8740 5.1367 1.6210 -1.8155 1.3500 -1.2796 -1.0057 0.1237 -1.9293 2.5705 2.3396 -2.1181 -0.3432 -1.1167 5.5194 -0.3072 -2.1224 -1.8464 -1.8660 3.2900 1.3192 -0.9784 -1.4090 -1.7943 3.9369 0.0375 -4.6065 -9.3973 0.3139
3.1017 0.8174 2.6103 -0.2769 -2.4442 1.0193 -1.5773 0.5490 -0.1135 -1.9157 2.4774 2.2123 -0.0657 -0.2959 -1.2619 6.0725 0.6146 -0.3738 -0.4700 -1.8470 2.3426 2.2118 0.3195 0.5102 1.7513 4.4920 0.5665 -2.3463 -3.6316 4.4917
-1.5012 0.5664 1.0533 -0.5455 -1.4681 -0.4111 1.8649 2.2616 -0.2498 -1.1736 0.3062 0.7540 1.2285 -1.0709 -0.0347 2.4745 -0.0674 0.5569 1.0242 0.1267 0.1234 1.7254 0.0874 1.5562 2.0451 3.1409 -0.6685 -0.5492 0.2204 6.1104
-2.2186 -1.2175 0.6625 0.7565 -1.1573 -1.5996 2.5776 -1.4749 -0.4388 -1.7438 -4.2073 0.2398 -0.6960 -1.9431 -1.2419 0.6814 -0.8919 -0.2780 -0.6931 -0.2427 -1.1531 0.7554 -0.9856 0.3724 -0.8707 1.4508 -2.0231 -1.0246 -0.0388 2.8182
1.0525 -2.9549 -0.1020 0.7262 -2.3211 -1.8368 -0.7700 -4.6002 -0.2977 -2.7987 -5.1038 1.3657 -1.6327 -1.1805 -2.5898 0.7990 0.4353 -0.4531 -2.2686 -1.5932 0.5794 1.4953 0.0760 0.0205 -2.0135 2.4962 -0.3467 -0.2797 1.0713 -0.3072
1.8506 -1.0026 0.1997 -0.4089 -2.6159 -0.3297 -2.6501 -0.5734 0.3985 -2.1939 -1.3502 2.7123 1.1687 0.6087 -0.9525 0.8199 2.5698 1.3199 -0.6399 0.3396 3.7279 3.2732 2.3219 1.8154 0.5184 5.7719 3.0442 2.1359 3.9875 1.3922
-0.8422 4.2438 2.9799 0.0315 -1.5296 2.3079 -2.0290 3.0941 0.9328 -1.0074 1.0312 2.7895 3.0780 0.9766 0.8595 2.1535 3.1463 2.7886 1.3013 3.6836 5.5897 3.8523 2.6202 2.9229 3.5372 8.4837 4.4543 2.6275 3.7060 5.3944
-2.5910 6.1970 4.2519 1.3635 -1.2153 2.1815 -1.6171 -0.8979 0.6561 -1.1899 -0.1514 1.4440 0.8864 -0.2763 0.3105 2.9266 2.4090 2.1766 0.9950 3.7471 5.3041 3.0339 1.5577 1.5959 3.0593 8.4964 2.8202 0.6641 -0.2819 5.8565
-1.9989 3.0619 1.8632 1.1251 -1.8784 -0.9526 -0.9690 -4.8354 -0.0897 -1.9988 -1.2375 0.5565 -1.3889 -1.3856 -1.0285 1.2399 1.5218 0.5625 -0.2046 0.9325 3.5199 1.9806 0.9900 -0.5270 0.0186 5.9106 -0.4621 -0.8263 -2.9233 2.9968
-0.9911 0.8727 1.3042 0.3310 -2.0244 -1.5107 0.2488 -0.6634 -0.6844 -2.2493 0.4007 0.7123 -0.1641 -1.7483 -2.1491 -0.4033 0.6761 -0.3351 -1.0705 -1.4438 1.3650 1.2330 0.2204 -1.7959 -1.6290 3.1693 -3.0655 -0.5902 -1.3856 1.8136
-0.1856 0.5293 3.6878 0.5628 -1.9697 0.2455 0.4099 4.7942 -1.0319 -2.3018 2.6910 0.0794 1.9912 -1.7619 -2.9014 -1.4960 0.1232 -0.0530 -1.8562 -2.5394 -0.1760 0.8249 -1.1179 -2.3888 -1.9844 1.9354 -2.9171 0.0392 0.9797 2.5154
0.4703 -2.2698 2.5816 0.5734 -2.4148 -1.5616 0.7660 3.1153 -1.0608 -2.3371 1.5992 -0.7899 1.8409 -1.5250 -2.4840 -2.4981 0.1575 0.7394 -2.4579 -3.2037 -0.8303 0.5934 -1.9291 -2.8663 -3.2420 1.1177 -1.0372 -0.2730 0.0404 1.7632
-0.1096 -4.8962 -0.5784 0.3127 -2.3090 -4.3663 2.6748 -1.1744 -0.5013 -2.2410 -2.6352 -0.1646 0.4849 -1.3787 -2.3391 -1.5242 0.0950 1.0430 -2.7988 -3.5614 -1.0603 0.2332 -2.1997 -3.3803 -4.1476 -0.1508 -0.9596 -1.7593 -2.9572 -0.2276
-1.9628 -2.9552 0.1579 0.6880 -1.7790 -2.6130 2.8592 -1.6214 0.2166 -2.3766 -5.1539 0.4076 0.0380 -1.5147 -3.5737 -0.2103 -0.6000 0.5889 -2.9639 -3.2741 -1.5416 -0.1779 -2.1315 -3.6487 -3.4924 -1.0446 -3.1157 -3.6653 -4.2624 -1.9957
-2.7709 -0.8881 -0.0099 -0.5339 -3.0984 -0.9811 -0.4957 -1.3674 0.0802 -2.2435 -3.8763 -0.1699 -0.0468 -1.1778 -2.4596 -2.4433 -1.5373 -0.0471 -2.1884 -2.1582 -2.7676 -0.4642 -1.2248 -2.7083 -2.9860 -1.8865 -4.4056 -4.9420 -3.5091 -3.7367
-1.7983 -2.1358 -3.8910 -3.2685 -5.6721 -2.7880 -3.4927 -3.0051 -0.8621 -1.2750 -1.5883 -0.6338 -0.6229 -0.4580 1.9760 -5.4541 -2.4908 -0.4224 -0.5423 -0.3460 -4.6058 -0.9608 -0.4611 -0.3740 -2.8590 -3.8755 -4.2979 -5.4253 -2.4834 -4.1647
-2.5807 -1.2982 -1.9017 -2.3181 -5.4964 -1.5999 -2.8534 -1.6294 -1.1804 -0.7525 -0.6812 -1.6172 -0.3384 -0.6597 3.4105 -3.0115 -3.2010 -0.3304 0.1268 1.2829 -6.1430 -1.6835 -1.0977 1.4666 -1.8195 -6.0808 -4.4276 -4.9743 -1.1284 -2.2680
-6.1324 1.8920 5.7144 2.0125 -2.2673 2.1037 -0.0631 2.6349 -0.2236 -1.4509 -1.0595 -4.0074 1.0756 -1.4630 0.2206 2.4167 -3.0487 0.2675 -0.5677 1.8229 -6.5628 -1.8218 -1.7596 1.3290 -1.3679 -6.6281 -2.8828 -2.7080 0.8913 -0.9700
-6.3602 -0.1247 6.0612 2.9668 -0.3878 0.3870 1.3946 1.5963 0.7586 -2.0858 -1.3354 -5.3738 0.8577 -1.1975 -1.1612 2.3437 -2.2550 0.6630 -0.9293 1.7134 -5.5512 -1.0407 -1.0404 0.2652 -2.6898 -4.9782 2.1955 0.3112 1.7136 -1.9648
-0.4441 -4.8981 0.2509 0.0587 -1.2871 -3.1255 -0.5076 -4.1021 0.7120 -2.1511 -0.5784 -3.4766 -1.2305 0.0434 0.4311 -1.4298 -1.4819 0.3485 -0.7603 1.7782 -3.2695 -0.2112 -0.3863 -0.4810 -2.6710 -1.9622 5.8145 0.8655 0.5793 -2.3058
4.7790 -3.2237 -0.8193 -1.4678 -2.1307 -0.5653 -3.5729 -4.4669 0.1353 -2.2029 -0.1096 0.2243 -1.4509 0.6602 0.1357 0.6549 -0.7342 -0.0699 -1.3502 1.6607 -1.2622 -0.4679 -1.1635 -1.2492 0.0516 0.1461 2.6428 -2.0510 -0.4638 -0.6438
3.9236 2.0768 1.0249 -0.8388 -2.1592 2.6910 -2.8669 0.0913 -0.4773 -1.5392 -0.4557 2.4581 0.2708 -0.0203 -1.3956 7.0616 -0.2323 -0.4322 -2.4554 1.0935 -1.1304 -1.8877 -2.2449 -2.0029 1.9385 -0.0369 -3.5831 -5.8678 -0.7810 0.6703
0.4969 3.2923 0.5248 -0.1253 -2.7940 0.8077 1.6285 1.0121 -1.2074 0.3146 1.0033 2.2203 0.3156 -1.0101 -0.2736 9.0042 -0.2116 -1.0840 -2.5579 1.2100 -1.4803 -2.8233 -2.1371 -1.3734 2.1374 -0.3909 -5.6405 -6.8819 -0.3668 0.7267
0.1267 2.2082 1.1948 0.6309 -3.0680 -0.1454 3.9093 0.2366 -1.5692 1.7515 4.6168 2.1267 -0.3532 -0.7713 2.0679 7.5937 0.3575 -1.1093 -1.1237 2.5965 -0.1059 -1.6171 -0.7278 1.0675 3.4857 1.1002 -2.7427 -3.5655 3.2217 1.0019
3.4414 2.1701 3.5170 1.1817 -1.7082 2.7647 1.8697 3.0646 -1.2065 1.6815 6.1996 3.6923 0.9519 0.5160 2.7453 7.9898 1.8130 -0.1478 0.5839 3.4580 1.5482 0.4014 0.7093 2.8990 4.9450 2.7759 0.7237 -0.0655 7.4170 2.2213
5.9120 1.5018 3.1624 1.0254 -0.7329 3.8105 -0.0060 3.8881 -0.9992 1.1214 3.0013 3.7855 1.3738 0.6675 2.7694 6.9821 1.9337 -0.1437 0.6767 2.4669 0.5333 0.0895 0.0918 1.4162 3.3578 2.2214 0.9668 -2.4189 3.7007 2.9321
3.5407 -0.0775 1.4047 0.9248 -1.8074 1.9281 0.5719 -0.5277 -1.5073 0.8086 -1.9860 -0.1590 -1.0885 -0.8992 2.8926 1.2047 -0.8090 -1.8156 -1.0240 1.5324 -3.0618 -2.9390 -2.7774 -1.8962 -0.0327 -0.7702 -2.7981 -8.8085 -6.1152 1.1917
-1.4379 -1.0321 0.4497 0.4770 -3.0645 0.0841 1.6578 -2.5631 -1.9636 0.3696 -2.9789 -5.1546 -2.6467 -1.9612 1.1616 -3.4797 -4.5286 -3.2720 -3.0709 1.2363 -6.9615 -6.1589 -5.3177 -3.7959 -2.6676 -4.7849 -7.6699 -12.1348 -10.6035 -2.3309
-4.1216 -0.9820 -1.3915 -1.0401 -2.7527 -1.9683 2.0417 -1.1167 -1.9841 -0.1913 0.4255 -6.8532 -2.4012 -1.4892 -2.4193 -1.7487 -6.7466 -3.6983 -4.6494 -1.3605 -9.2348 -7.9655 -6.1892 -4.8875 -4.4933 -7.5521 -9.8515 -11.9681 -9.2207 -5.1060
-4.2135 0.5667 -3.4443 -2.2209 -2.0112 -3.4195 0.9647 -3.3876 -2.2104 -0.6909 1.6557 -5.3911 -3.6018 -0.7754 -4.5749 1.8031 -7.0601 -3.6137 -5.2247 -5.1722 -8.7239 -8.2606 -6.4322 -6.4211 -5.1237 -7.0706 -9.1485 -12.4139 -9.1144 -5.8754
-4.5403 2.6680 -4.1349 -2.5608 -2.4314 -2.9144 -1.7694 -7.3077 -2.9100 -1.2104 -1.8820 -3.7568 -5.0972 -0.4115 -3.7687 1.3648 -6.2260 -2.8604 -4.3221 -5.5120 -6.1860 -7.2079 -6.3212 -6.5365 -4.4555 -4.3720 -8.0842 -12.8769 -9.1467 -5.2417
-5.8482 2.9469 -4.3258 -2.6534 -3.4755 -2.7757 -2.9350 -6.3473 -3.4787 -1.2615 -4.8686 -3.0196 -4.2455 -0.3852 -2.3866 -1.4694 -5.2104 -2.1031 -3.6536 -3.8962 -4.4581 -5.9258 -5.7670 -5.3420 -5.0303 -3.3999 -8.0736 -11.7506 -7.2335 -5.3039
-6.7367 1.8132 -3.5707 -1.5386 -3.4987 -3.5835 -0.7581 -3.7331 -3.3109 -0.5431 -4.9123 -2.6950 -3.1401 -1.1379 -2.6749 -3.5711 -4.5491 -2.3578 -4.7711 -4.2925 -4.4329 -5.2314 -5.1853 -5.1562 -7.0047 -4.8484 -7.8507 -10.0747 -6.1598 -6.4599
-5.5782 0.4773 -2.5066 -0.1719 -2.7868 -3.5178 0.6482 -4.1619 -2.6924 0.0149 -4.8854 -2.8798 -3.1637 -1.6774 -3.2793 -5.4066 -3.4333 -2.1830 -5.4535 -4.3791 -3.2661 -3.6120 -3.6525 -4.5529 -6.3106 -3.7413 -4.5450 -6.6243 -4.0352 -4.8457
-2.0618 -1.9895 -4.0259 -1.1457 -3.0971 -4.0253 -0.7181 -5.6042 -2.4578 -0.0854 -4.6876 -2.5473 -2.6963 -0.6459 -2.3171 -6.2657 -1.2151 -0.4862 -4.0134 -2.1946 0.3973 -0.4213 -1.1898 -2.0096 -2.6030 1.7421 1.3720 -1.3354 0.6577 0.2211
1.3190 -4.2779 -6.0017 -2.5914 -3.6314 -5.7547 -0.7482 -5.7831 -2.6326 -0.1703 -3.0133 -0.3575 -2.2155 0.1891 -1.7346 -2.6231 0.5953 0.3767 -3.0748 -1.5692 3.2768 1.5432 -0.5819 -1.1303 -0.5489 5.5219 4.3847 0.1615 1.6251 2.5484
1.1452 -2.7995 -4.2949 -1.8391 -2.3105 -5.3585 1.2186 -3.4847 -2.5595 -0.2094 -2.0778 1.1782 -2.3205 -1.4237 -3.5869 3.7494 0.3948 -1.0340 -4.4976 -3.8390 2.7905 0.5859 -1.9578 -3.7043 -1.5172 3.7743 2.4341 -3.4237 -2.3490 -0.1619
-2.4282 1.5380 -1.3551 -1.0461 -0.7300 -2.4353 0.2994 1.2096 -2.2619 -0.6308 -3.1578 -0.4616 -1.3798 -3.5979 -4.9444 3.7985 -0.8565 -2.4965 -6.1227 -4.9431 1.0236 -0.9094 -2.2268 -5.3608 -2.9559 0.9129 0.3540 -5.2976 -3.7651 -3.1138
-5.1002 4.1580 -0.8996 -1.4924 -1.3823 -0.5020 -3.9834 2.2643 -2.0861 -0.9853 -4.9749 -1.7034 -0.5149 -3.3171 -3.3015 -4.4872 -1.4415 -2.6009 -6.2423 -3.7145 0.1676 -0.9445 -1.8617 -3.9801 -4.2721 0.0478 -0.0866 -3.6136 -1.4552 -4.2362
-4.0368 3.9904 -1.3647 -0.9311 -2.5486 -0.6483 -6.7284 -3.7217 -1.7285 -1.0333 -6.3804 0.5972 -2.1635 -1.4302 -1.8507 -9.3281 -1.3430 -2.4872 -6.1374 -3.7797 -0.9023 -0.7956 -3.1627 -3.4346 -5.8252 -2.1156 -2.7958 -4.1784 -1.3244 -5.3689
-2.2902 3.3143 -1.3644 0.2084 -2.0423 -1.8673 -5.8300 -8.2186 -1.1043 -1.0969 -5.7283 2.2603 -3.7479 -0.6586 -2.8678 -3.8258 -1.3108 -2.4630 -6.5835 -6.1686 -2.6692 -1.6569 -4.2488 -5.4550 -6.3172 -6.3626 -7.5284 -7.9118 -3.6535 -6.5193
-3.6315 1.9507 -2.9127 -0.7528 -1.5105 -4.2552 -3.2872 -4.5712 -0.9369 -0.8254 -3.1227 -0.4022 -2.1241 -1.2229 -3.1956 1.6428 -1.5394 -1.9060 -6.0043 -7.5585 -3.2382 -2.5069 -3.2078 -6.6071 -5.8269 -7.9048 -9.1695 -9.1646 -3.9724 -7.0398
-4.9728 -2.3101 -5.9117 -2.8465 -2.6981 -6.8530 -1.1858 0.1497 -1.3110 -0.2053 -2.1585 -3.6119 0.0591 -1.2730 -1.0731 -1.6654 -1.7137 -1.2910 -3.6929 -6.1740 -2.2463 -2.2887 -2.0223 -5.1826 -5.9591 -5.6804 -6.7992 -6.6285 -2.6171 -7.5470
-1.8588 -7.2207 -6.9074 -3.2320 -4.2346 -6.7867 -0.6013 -0.5609 -1.2709 -0.3602 -3.9593 -3.0234 0.0001 -0.0926 0.1905 -5.5659 -1.3041 -0.9138 -1.7144 -4.0607 -1.2636 -1.3979 -1.5596 -3.4524 -5.9681 -3.8250 -4.3567 -4.8942 -2.9551 -7.6378
1.1010 -6.4684 -5.1231 -2.3251 -4.6372 -3.6522 -1.7097 -1.8200 -0.6565 -1.3693 -6.0165 -0.3703 -0.1529 1.1851 -1.6103 -2.0797 -0.4702 -0.2317 -1.8999 -3.5154 -0.8273 -0.7601 -0.5223 -2.7039 -4.3305 -3.1718 -4.0582 -5.5487 -3.5857 -6.2004
-2.6988 -0.2026 -4.0511 -2.2753 -4.4555 -1.1532 -3.0552 -0.5773 -0.3273 -1.7361 -7.5662 0.6212 0.9572 1.4833 -3.6107 1.1682 -0.1018 0.3720 -3.1080 -3.8382 -0.9111 -0.7194 0.3821 -1.7732 -1.9966 -1.9658 -4.4902 -5.5065 -0.9872 -3.8970
-7.9633 2.7760 -5.3748 -2.9388 -3.9632 -2.0101 -2.7842 -1.6939 -0.3033 -0.8790 -7.6962 -0.1212 1.0699 0.8481 -2.6425 -3.1035 0.0136 0.2740 -3.2528 -2.8118 -1.5937 -0.6455 0.2348 -0.1690 -0.3621 -1.5542 -3.1490 -3.6311 3.0309 -2.5321
-5.2937 -0.7534 -5.6896 -2.4237 -2.2666 -3.7884 -1.3282 -4.3795 0.1978 0.0759 -3.8808 0.0131 0.1509 0.0721 -0.3458 -7.3786 1.1598 0.1934 -2.6636 -0.9479 -1.4622 0.4058 0.6464 0.8853 0.0892 -2.1182 0.7479 -1.9761 4.3046 -2.3161
1.9360 -3.1129 -2.1633 -0.0393 0.1885 -2.9379 -0.5023 -2.7519 1.0928 0.1859 0.9863 1.7222 0.6676 0.0920 0.1134 -4.7125 3.2424 0.6469 -2.8979 -0.3100 0.6174 2.2497 2.1313 0.7530 -0.7525 -0.1736 4.3530 -1.5180 3.2946 -1.0096
4.0487 -0.1663 2.5153 2.8712 1.5189 -0.3008 -0.1937 0.2510 1.5242 0.0126 1.2828 2.9637 1.8614 0.8853 -0.2336 -1.1759 4.6917 0.9230 -3.2966 0.2089 2.6082 3.5732 2.7709 0.8730 -1.1430 3.8918 4.1098 -1.2928 3.2729 2.5047
1.9936 2.9574 4.9557 4.4936 1.3462 1.7167 0.7087 0.0561 1.3237 0.6269 0.1517 3.1969 1.8651 1.2288 1.3579 -1.1165 4.8793 0.8452 -2.1948 2.4874 2.4241 3.7927 2.5895 2.6260 0.8851 5.4256 1.9550 0.0957 5.6730 4.8318
2.0791 3.4677 5.6173 4.1655 0.9625 3.1456 1.2746 1.2079 1.0396 1.7225 3.0598 3.8062 2.0350 0.6149 3.8725 1.4995 4.3801 1.0014 -0.3740 4.5497 1.2499 3.4500 3.3201 4.8174 3.7858 3.8730 2.9835 3.2324 9.2771 3.1558
2.2227 4.2508 5.2240 2.6082 0.7535 3.8762 0.2044 4.5202 0.6768 1.7591 5.0491 3.8684 2.6952 0.0442 4.1616 7.5799 3.2261 0.9693 0.0433 3.6440 0.2645 2.4993 3.5986 4.9889 4.7498 2.1495 5.5592 5.4510 10.2847 0.9127
-1.6001 5.7212 3.4861 1.1041 -0.2740 2.9624 -1.2240 3.3476 -0.0903 0.4307 1.4981 1.9505 1.7273 0.1909 2.1001 7.5305 1.2686 -0.0813 -1.0256 1.0618 -1.5363 0.3240 1.0465 2.6971 3.2199 0.3416 3.0874 2.4401 5.8302 0.9839
-4.8442 4.8909 1.7669 0.4275 -2.1675 1.4167 -0.8844 -0.6154 -0.7924 -0.5146 -1.0290 0.1962 -0.0006 0.6187 0.7347 -0.0502 -0.5206 -1.4768 -1.8459 0.3359 -4.0830 -2.3949 -2.2454 0.1300 0.2000 -2.5158 -3.4061 -4.4804 -0.5272 -0.2688
-2.9333 1.7501 1.2995 0.6239 -2.9441 0.6404 1.1007 -0.9013 -0.8673 -0.0663 1.1525 0.4163 -0.3377 0.7612 1.0596 -3.1394 -1.2050 -2.0818 -1.8660 1.3699 -5.4421 -4.0035 -3.0174 -0.9250 -2.1393 -4.6795 -6.6768 -8.2799 -2.3759 -4.2124
-0.0857 -0.2182 1.1659 1.1031 -1.7977 0.4818 2.3164 0.3612 -0.6038 0.4988 2.0094 0.9133 -0.0145 0.5743 0.8480 1.5351 -0.6557 -1.8282 -1.7873 0.9058 -4.4502 -3.6140 -2.0847 -0.6731 -1.2388 -4.0629 -5.2110 -5.5213 1.2482 -5.4244
0.6473 -0.8984 -0.0465 0.4899 -1.1590 0.7791 0.8372 -0.0014 -0.3194 0.3381 -0.5712 1.3422 0.7690 0.9940 0.4626 2.8790 1.6526 -0.4852 -0.7399 0.2605 -0.8771 -1.0230 -0.7579 1.1220 2.7319 -0.4787 -1.2959 0.6340 6.3946 -1.8487
2.3001 -2.3920 -1.7644 -0.9619 -1.8992 1.4345 -1.6325 -0.1637 0.1527 0.3649 -2.4386 3.4905 2.5045 2.8040 2.2819 -0.6725 5.2790 2.0674 2.0790 3.2419 4.2986 2.8285 1.7256 4.4249 6.4951 4.5106 4.2569 5.4022 9.1621 2.0145
1.4489 0.4711 -0.0771 0.0009 -1.1243 2.2663 -1.4711 0.1568 0.8214 0.7010 -1.8504 5.7621 3.1730 4.2192 3.9564 0.7616 7.1972 3.6415 3.8560 6.0217 7.4430 4.6916 3.8458 5.7551 6.7923 7.2109 6.6708 5.1691 7.1867 3.4561
-6.5720 10.8449 6.1612 3.5952 1.3281 3.8591 1.0357 1.3048 1.2970 0.4567 0.7884 5.3884 2.4427 3.0186 2.4875 4.8819 5.9250 2.4775 2.5850 3.6065 6.2567 2.8121 3.0207 3.2356 3.8177 5.4686 1.8956 0.3893 1.8177 3.6221
-10.9078 16.0870 9.9568 4.8700 1.8272 5.8572 2.2290 4.2374 1.2279 0.0611 3.5493 4.3826 2.8060 1.0422 1.1661 3.0317 4.3155 1.1347 1.5945 1.3575 4.0407 0.8116 1.3734 1.4135 2.1532 3.1060 -2.8182 -2.8457 -1.3666 3.7252
-3.3679 8.7581 7.3792 2.7639 0.1788 6.4341 1.6309 5.0603 0.8093 0.2495 3.3773 5.5597 3.6167 1.5816 2.6616 0.9354 4.6528 2.3496 3.2865 4.0167 4.3514 2.1158 2.1943 3.1351 4.9182 4.1315 -0.6867 -0.7462 0.6912 4.4300
3.2757 2.5071 4.6318 1.5365 -0.8670 5.1580 1.4560 2.5277 0.6719 0.3865 2.7554 7.3181 3.3952 3.8493 3.6509 5.1114 5.7166 4.3934 4.7914 5.8371 5.5954 4.4818 4.0252 4.7844 8.3015 6.2949 2.3457 2.8300 4.8601 5.8733
0.2197 5.2363 4.6639 1.6853 -1.1659 3.3871 1.4393 2.3203 0.9442 0.3180 5.2052 7.4831 4.1090 4.9429 2.9026 7.4426 6.1885 4.9864 4.2260 4.0331 5.3256 4.9729 4.3166 4.7488 7.9664 6.5791 0.9179 3.8670 7.4284 6.8282
-3.5206 7.0697 3.1049 0.8000 -1.5201 2.0450 0.7102 4.1775 1.0198 0.8086 5.7655 6.6380 5.6236 4.4638 3.9045 2.5864 6.1242 4.7841 3.5468 3.9143 4.1804 4.2539 3.5786 5.3230 6.0614 5.9420 -0.8769 2.9641 7.5539 5.9893
-1.9676 3.3494 -0.2194 -0.3966 -1.4875 0.9740 0.4387 2.4822 0.7726 1.3110 1.5432 5.6945 5.0292 3.8043 6.5611 -1.5188 5.6174 4.6504 3.7540 5.8466 3.3346 3.5810 3.0524 5.8822 5.8963 5.3887 0.0255 1.8289 5.8762 4.5388
1.1678 0.0121 -2.1233 -1.0955 -1.0336 -0.0944 0.5458 -0.5818 0.7609 0.7503 -0.5603 4.7449 3.2499 3.7516 6.3807 0.4287 4.7546 4.2103 3.5762 5.3997 2.7487 3.0642 2.8563 4.6763 6.6640 4.7828 1.7151 2.0570 4.7270 5.1228
2.6419 -0.4629 -3.1704 -2.3154 -0.2138 -0.6306 -0.1077 0.0098 0.6586 -0.2223 1.5548 3.3555 2.6607 3.9471 2.9267 2.6645 3.2823 3.1797 2.4381 3.4850 1.8430 2.4183 2.7620 3.3782 6.8085 4.5898 2.4487 4.3137 6.6599 7.0541
1.6396 -0.5492 -3.9475 -3.1649 0.8582 -0.2573 -0.4109 2.2704 -0.4241 -0.3595 1.9974 0.0411 2.0930 3.1592 1.0782 -0.0196 0.6374 1.5458 1.2319 3.1489 -0.1778 0.9893 2.6404 3.3966 6.2153 3.9975 1.5889 6.4151 10.5797 6.4971
-0.3735 -1.3859 -3.0360 -2.1484 1.1286 -0.1542 0.3627 2.1025 -1.7837 0.1829 0.7648 -4.4347 0.2671 0.9512 2.4736 -3.5035 -1.9850 -0.3932 0.4505 3.2537 -2.6900 -0.8914 2.2176 3.3487 4.7239 1.7966 0.1385 6.3672 12.3200 2.9346
-0.4705 -2.0155 -1.4244 -0.5193 0.6982 -1.3124 0.8060 -0.6028 -2.0102 0.4397 1.6563 -5.4404 -1.6389 -1.1247 2.8312 -2.4234 -2.3218 -1.8723 -0.7420 1.9870 -3.2598 -1.6017 0.9568 2.2254 2.5261 -0.1116 0.2552 4.9536 9.3516 0.0420
1.1305 -2.1335 -1.0172 0.3060 1.1945 -2.5148 1.2036 -2.9183 -1.4050 0.2260 2.4487 -2.1170 -2.3986 -1.5621 0.2860 0.7042 -0.5643 -2.3887 -2.4978 0.3811 -1.3391 -0.8902 -0.6847 0.7697 0.9055 0.5341 1.2831 3.2090 3.9886 -0.4053
2.2731 -1.9456 -0.6877 1.0301 2.4958 -1.9224 2.5157 -2.4505 -0.7977 0.2648 1.1845 0.9910 -1.6356 -0.6528 -1.2912 1.4388 1.5140 -1.7837 -3.0079 0.2638 1.0751 0.1329 -0.8903 0.3693 1.0090 3.1445 1.6323 1.9684 1.2675 0.2000
2.8144 0.3117 1.1774 1.9412 2.7121 0.8658 2.5230 0.0189 0.1287 0.9208 1.4095 2.9434 0.3831 0.5242 0.2031 0.8120 3.3431 -0.3859 -1.3803 1.6350 2.9760 1.1339 0.3978 1.7943 2.5940 6.4217 2.7902 2.8903 2.8504 1.1617
3.0921 4.7382 3.5475 2.1076 1.4851 4.3983 -0.3551 2.1417 1.1080 1.3827 3.3064 4.8680 1.9306 0.8504 1.7128 1.1914 4.0006 0.1664 0.2718 2.2024 3.8690 1.6056 0.6563 3.3962 3.8458 8.4401 5.1575 5.3047 5.1278 2.2726
2.4627 6.1462 3.7103 1.0890 0.2801 5.6994 -3.3602 2.4265 0.7328 0.7620 2.0325 3.3988 1.0529 -0.2393 0.8718 1.4274 1.9543 -1.3786 0.0318 0.6453 2.3936 0.4203 -0.8643 2.6449 3.1760 6.5795 5.7828 5.6942 4.7690 1.9648
0.2455 2.4020 -0.2564 -1.1775 0.0140 2.7313 -3.9757 0.1510 -0.8740 -0.2270 -1.7081 -2.2852 -1.6038 -1.3340 -0.2294 -1.2556 -1.6357 -3.5880 -0.7258 -0.1764 -0.8621 -2.0016 -2.2088 0.6142 1.3860 2.0823 3.7108 3.5443 3.0840 0.0093
-3.4256 -0.5902 -5.9559 -3.6785 0.6766 -2.3629 -3.2716 -3.8661 -1.8619 -0.2664 -2.0230 -6.9637 -3.8168 -0.8463 0.6155 -6.4026 -4.2050 -4.8044 -0.3048 1.5517 -3.8168 -4.3395 -2.9609 -0.0886 -0.3156 -1.0964 0.4654 1.6943 2.2318 -1.9801
-6.4789 0.5433 -8.0143 -4.0775 1.8869 -4.8867 -3.2773 -7.0407 -1.7186 0.1847 0.4146 -9.1392 -5.1492 -0.2709 1.2996 -9.1072 -5.7798 -5.8084 -0.1095 1.9242 -6.6748 -6.5068 -4.2486 -0.5892 -2.3793 -3.1012 -3.4696 0.0698 1.0374 -4.3772
-6.5095 1.5379 -6.4589 -2.8042 2.1644 -3.5274 -4.3347 -7.6849 -1.5975 0.0930 -0.2936 -11.4119 -6.0695 -1.4750 -0.3359 -7.0546 -7.5188 -7.0947 -1.3209 -0.9051 -10.1370 -8.4503 -5.3656 -2.2777 -4.0414 -6.0717 -6.7846 -2.6286 -0.5608 -7.3288
-4.2334 -0.4293 -6.1818 -2.7122 0.4857 -1.8172 -4.2674 -6.3096 -1.8451 0.1584 -3.0260 -12.5421 -6.0280 -2.8816 -2.0178 -4.4359 -9.0720 -7.5094 -2.0164 -3.2599 -12.7096 -9.4366 -5.4470 -3.2507 -3.8307 -8.6368 -7.4547 -3.8924 0.6822 -7.8275
-2.3748 -3.0876 -6.9739 -3.0581 -1.1104 -2.3955 -1.0096 -4.6246 -1.9246 0.8545 -2.1777 -11.2436 -5.5007 -2.6943 -2.1179 -4.2539 -9.9739 -7.3036 -1.3470 -4.2817 -13.6632 -9.7633 -5.4824 -3.2462 -3.8382 -9.3727 -6.9391 -2.6075 3.5846 -6.0069
-2.0939 -4.4940 -5.9073 -1.6816 -0.5045 -3.7505 2.7473 -4.4893 -1.9154 0.9776 0.0527 -10.4067 -5.9169 -1.8507 -2.1038 -4.8025 -10.1062 -7.4501 -1.0021 -5.3911 -13.9462 -9.9097 -5.2194 -3.9253 -5.9437 -9.6031 -7.4077 -2.2934 2.5435 -6.1612
-3.0735 -4.5869 -5.7678 -0.8511 0.7407 -4.3851 2.9157 -5.8092 -1.9888 0.5031 -1.8315 -10.0963 -6.1719 -1.1765 -1.0994 -5.4523 -8.6919 -6.6058 -0.6566 -4.9610 -13.2522 -9.0291 -3.4191 -4.1009 -7.0787 -9.9046 -7.9310 -3.9012 -1.9355 -8.1457
-4.8527 -3.7611 -8.7212 -2.5491 0.7411 -5.2840 1.1104 -6.2475 -1.6886 0.8166 -4.7098 -7.6646 -4.3384 -0.2377 2.0447 -6.3555 -5.8535 -3.6728 1.2768 -3.1154 -10.9500 -6.8288 -1.3962 -2.5499 -5.1031 -9.4365 -7.3873 -4.0442 -4.0393 -8.2528
-5.8216 -3.3770 -10.3599 -3.7459 0.7788 -6.6436 0.8091 -5.3903 -0.9666 1.5398 -3.3188 -5.1410 -1.9497 0.8065 3.5204 -5.2606 -3.1258 -0.4779 3.3345 -2.4142 -7.9940 -4.1468 -0.2260 -0.9221 -2.8557 -7.5173 -4.6669 -1.0422 -2.4534 -6.4720
-4.4349 -3.9124 -8.1942 -2.4157 2.1869 -6.7176 1.1667 -4.7605 -0.5114 1.5157 0.0591 -5.1035 -1.2406 1.5761 1.4488 -2.3657 -1.4457 1.3138 3.7769 -2.0680 -5.4638 -1.5282 1.5235 0.2068 -2.3050 -4.2649 0.5059 3.2202 0.2792 -4.4651
-2.8724 -2.7385 -4.4459 -0.5153 3.8382 -4.3947 0.9559 -2.6826 -0.4577 1.4606 2.5936 -5.5810 -0.7979 2.2696 0.5264 -1.0619 -1.0641 2.0274 3.9792 -0.6092 -4.1596 -0.0822 3.1639 1.6658 -1.7564 -2.0477 2.6886 5.6097 3.7115 -2.2510
-3.8607 1.3268 -0.2822 0.9317 4.5069 -0.6469 0.9646 1.7893 -0.1875 1.9936 4.5542 -5.5551 0.8396 2.7131 2.7754 -1.0387 -1.5760 1.9376 4.6655 0.8038 -4.2546 -0.8501 2.4619 2.4347 -0.1099 -2.7843 -1.9273 4.6942 7.3199 -0.8155
-4.3004 4.2686 2.3616 2.0344 4.4949 2.0408 0.5852 2.8562 0.3072 2.0071 4.0265 -5.3730 1.3075 2.4231 4.1820 0.2617 -1.1706 1.1072 4.3533 1.7827 -3.4196 -2.0386 1.1523 1.6292 1.9172 -3.2777 -6.1811 2.6894 8.0488 -1.1439
-0.0215 3.0142 1.2043 1.7359 4.5140 2.0884 0.0429 -1.3356 0.3443 1.1426 2.2649 -2.7100 -0.5661 1.7141 2.9239 2.8350 0.8761 0.4246 3.1891 2.5965 0.4774 -1.2306 1.6545 0.7405 4.0673 0.2419 -3.4842 2.9347 6.0824 -0.7800
5.6959 -0.0547 -0.5585 0.2819 4.6957 0.6391 2.0348 -2.0715 -0.1171 0.4410 5.1464 2.0871 -1.3067 1.3418 0.9287 5.8062 2.8492 0.4105 2.5619 2.2684 5.3438 0.8058 2.1425 0.6996 6.2248 5.5544 1.9768 5.8193 5.9389 2.6177
7.6720 -2.0377 0.1009 -0.6699 4.5978 0.1097 5.0303 3.1720 -0.4023 0.2051 9.4603 4.1834 0.7121 1.4806 -0.3822 6.9579 4.0338 0.5948 2.4318 1.7744 8.2278 2.3515 1.5139 1.0216 8.1854 8.9965 5.4145 9.1547 8.3258 7.1171
7.5365 -1.9628 0.7104 -0.8615 3.8095 2.0289 3.7945 5.2940 -0.1868 0.0811 6.4794 3.2963 2.2724 1.7455 0.1519 4.3212 5.4363 0.8129 2.7732 3.8244 9.5086 3.5820 2.2206 2.2603 10.7028 11.1223 7.7449 11.5695 10.3289 10.2440
7.2169 1.1446 0.8435 -0.6424 2.5432 5.0136 -0.2157 2.7116 0.0932 0.0320 0.7112 3.4433 2.0083 1.6355 2.3129 2.1547 6.6570 1.0803 3.5011 6.8758 10.3067 4.5692 4.1722 4.3598 13.2150 12.8481 9.3688 13.3476 12.2906 12.0790
3.8298 5.9345 2.9770 0.0359 1.6767 5.7000 -0.4288 3.2265 -0.2199 -0.3563 1.9773 4.4852 1.9544 1.0302 2.7176 4.0469 6.3157 0.7591 2.8403 6.4719 10.3701 4.2485 4.2203 4.8121 12.8995 13.0381 8.8890 14.0523 14.2444 12.2155
-0.5770 8.3423 5.9107 0.8877 1.8475 4.7307 2.6980 6.5233 -0.9939 -1.5024 6.2888 4.5732 2.1261 0.5896 0.1704 4.8235 4.8943 -0.1295 0.7130 3.1066 10.0397 2.9115 2.6398 2.8482 9.6159 12.6071 7.0228 12.5852 12.4242 10.0000
0.4899 7.3497 7.6430 1.6702 2.1009 5.9278 3.1755 6.6146 -1.2905 -2.5156 6.1826 4.6435 1.3897 0.7734 -1.6302 2.2426 3.9657 -0.3204 0.1741 1.3779 9.8078 2.3394 2.1260 1.2300 7.2732 13.1122 6.1911 10.4188 7.6206 8.0394
4.5535 5.4979 8.7891 2.3396 1.2867 8.2775 0.5028 4.5751 -0.7973 -2.3768 4.1343 4.2615 0.8398 0.7416 -0.8390 2.0567 3.5744 0.4903 1.6227 2.0717 8.5445 2.7394 2.2309 1.1938 7.6807 11.6951 6.6320 10.0154 6.6845 8.1909
4.4023 3.8814 8.9788 2.8124 0.6922 8.2002 -1.7207 3.2373 -0.1981 -1.8853 1.5432 1.5468 1.0082 -0.2619 -0.2274 3.1782 2.9081 0.9855 1.3902 2.0319 5.8804 2.5604 1.2044 0.8515 8.0288 6.3704 5.6624 9.9849 10.6420 7.4900
1.1919 2.4162 7.7017 3.1776 1.7513 6.4617 -2.6242 1.6308 0.0300 -2.3389 -2.9507 -2.1396 0.7880 -1.2932 -1.3974 -1.0208 2.2237 0.4723 -1.7855 0.7466 3.8574 1.4769 -0.2214 -0.4630 6.2172 2.3806 2.7901 7.8444 12.1060 4.8636
-0.2445 1.5018 6.7668 3.1111 2.9192 4.6429 -2.0240 0.9607 -0.0569 -3.0962 -2.9541 -4.0373 0.4739 -1.0297 -2.3843 -6.7661 1.7402 -0.2490 -4.7306 0.3187 3.4404 0.6799 -0.9267 -1.3020 3.8496 3.6879 1.4606 5.1706 7.4491 3.6193
0.1764 0.0537 5.9999 1.8834 2.3966 1.8472 0.0856 2.5658 -0.2932 -2.9381 3.6598 -3.8401 0.8191 0.3227 -1.8690 -6.5228 0.8780 -0.3010 -4.8834 0.2883 3.0916 0.6767 -1.1517 -1.1992 2.4081 5.4617 2.7278 4.5536 2.4416 3.6834
0.6399 -2.5576 3.1976 -0.0965 0.8319 -0.6848 0.3317 3.4396 -0.2451 -2.6663 5.4379 -2.8323 1.3747 1.4492 -1.5172 -3.2945 0.1761 0.4495 -2.8881 -0.9938 2.0865 1.1729 -0.6204 -0.7827 1.3883 3.4058 3.8073 6.1385 3.1517 2.3547
0.5895 -4.0701 0.2910 -1.1465 -0.3745 -0.1455 -2.3651 2.8134 0.3592 -3.1504 -1.3357 -2.1344 2.1336 1.6717 -2.2058 -2.4649 0.6899 1.6226 -0.3986 -2.1788 1.1643 1.9560 1.2196 -0.0059 0.9853 0.7234 3.7567 8.8280 7.3808 0.4728
0.1232 -4.1881 0.3229 -0.5111 -0.7251 1.3331 -2.9432 2.8912 0.7748 -3.0105 -5.2083 -2.1649 2.8768 1.7993 -1.3059 -2.1230 1.5881 2.6704 1.7076 -1.3465 0.6125 2.7256 3.4145 1.2862 1.5780 0.3236 3.4844 10.1664 8.7618 -0.8358
-0.6386 -5.3658 1.4121 0.5702 -0.6898 -0.1670 0.4528 2.9114 0.3091 -1.6329 -2.1865 -2.4105 2.6274 2.7991 2.0226 -0.1797 1.7992 3.4176 3.1096 0.6850 0.6674 3.4456 4.7749 2.5051 1.9792 0.2617 3.0360 8.5337 6.4155 -2.0807
-2.1737 -6.3477 1.7175 0.8700 -0.8559 -2.5721 3.3230 2.5221 -0.3718 -0.6051 1.0013 -2.6467 2.0493 3.9084 3.9313 1.5131 1.6670 3.9088 3.7933 2.3033 1.0659 4.1898 5.3570 3.1259 2.0173 -0.6815 3.1025 6.7883 4.9388 -1.9185
-3.7535 -4.8045 2.3743 0.6797 -0.8966 -2.8939 4.0283 2.6919 -0.6166 -0.0380 4.5193 -3.7593 1.7609 3.5789 3.4168 2.3988 0.9088 3.7081 4.2744 3.1627 0.2348 4.2059 5.3975 3.3955 2.9657 -0.7667 4.2823 7.7391 6.3162 0.0696
-2.4636 -3.8830 2.6003 0.4807 -0.5402 -2.8685 4.0917 1.1868 -0.8213 1.1229 10.2079 -5.3924 0.4736 2.1798 4.0102 3.3652 -0.5869 2.8562 5.1932 3.8021 -1.2969 3.6207 5.1253 4.3786 4.8545 0.9080 5.7380 10.0884 9.5312 1.5609
1.4375 -5.1737 1.7577 0.2227 -0.4231 -1.9880 1.8689 -1.8938 -1.0265 1.6413 10.5141 -5.2647 -1.0493 1.7116 5.4786 3.9099 -0.7411 2.5374 6.1132 4.8613 -0.6880 4.2129 5.4381 6.6794 7.2300 2.7911 7.2359 11.9603 13.7824 2.4344
3.2113 -3.5349 2.5182 0.1452 -0.6465 2.3149 -2.8024 -1.5911 -0.6818 0.5017 3.8977 -2.9693 -0.2902 2.7449 5.0963 3.4413 1.0727 3.0507 5.7173 5.8244 1.5420 5.5798 6.3074 8.2366 9.3647 3.4519 7.8630 11.2318 14.5780 4.0169
2.0167 1.3283 4.8097 0.4224 -0.6880 6.1677 -4.7198 1.9659 -0.0460 -0.3595 0.7050 -1.0540 1.6883 3.6746 4.4742 2.1094 2.1793 3.2326 4.1219 5.3912 2.5172 5.1526 6.0246 6.6195 9.2984 3.7417 5.9047 6.7327 8.2466 5.2280
1.8124 2.0530 4.8289 0.5856 -0.8048 4.8321 -2.0555 2.8354 -0.1446 0.0794 2.8935 -1.2920 1.5777 3.0498 4.9506 0.5847 1.1642 2.4072 2.9148 3.9742 2.3698 3.1189 3.9961 3.6846 7.1049 4.3305 3.3143 3.3933 2.8122 5.2601
2.1981 -1.4305 2.4812 0.1986 -1.2395 1.4983 0.4309 0.1750 -1.3533 0.1011 3.1332 -2.7152 -0.7246 1.2002 3.4760 -0.0495 -0.5574 0.7701 2.1980 2.7762 2.0370 1.4257 1.7968 2.2570 5.2523 3.3352 2.3873 4.7177 5.7114 4.5175
-0.3061 -1.7731 1.2676 -0.5601 -1.3082 0.7462 0.4205 -0.7601 -2.7126 -0.8124 1.4877 -3.5534 -2.2403 -0.1998 -0.1143 -0.5172 -1.5515 -0.9632 1.0552 1.5158 1.1492 0.0478 0.3308 0.9049 4.1200 0.5993 1.0021 4.6791 7.9239 2.3734
-3.2318 0.3047 1.4841 -1.2434 -0.8985 1.3018 0.5686 1.5097 -3.1282 -0.9207 1.3319 -3.4889 -1.5882 0.1361 -0.6956 -2.3978 -1.3697 -1.5350 0.4107 0.9837 1.1795 -0.9194 -0.7708 -1.2141 3.4000 -0.0886 -0.8536 0.7208 1.9508 0.4174
-1.7599 -0.9338 0.5716 -1.8129 -0.8912 0.5301 1.7201 2.6256 -2.7746 0.2456 1.5470 -2.9195 -0.5269 1.4962 3.0694 -3.7377 -0.1842 -0.5622 1.3094 3.1059 3.7045 -0.0727 -0.7264 -0.8234 5.1224 2.5026 1.0189 0.9621 -1.0262 2.8129
1.9793 -2.9174 -0.5205 -1.9814 -1.1949 -0.4061 2.1397 0.8355 -2.2857 0.8930 2.8644 -1.6773 -0.5399 2.0093 5.5923 -2.2948 1.1960 0.5623 2.2459 5.6676 6.5118 1.8288 1.0096 2.1684 8.8375 4.9819 5.9494 7.7880 7.4644 8.0696
2.7629 -1.1228 1.7792 -0.6213 -0.6298 0.7634 2.3780 -0.2846 -1.7499 0.1184 5.8106 -0.8758 -1.0976 1.1111 3.6054 -0.3846 1.4605 0.2106 1.6393 4.7897 6.6285 1.9981 1.8630 2.9005 9.9082 5.5435 7.9804 12.1629 15.5098 9.5502
1.4953 0.7193 5.5497 1.4163 0.7168 3.1761 3.8584 1.9828 -1.4256 -0.5285 5.8693 -2.3525 -1.3756 0.1489 0.8748 1.1996 -0.1388 -1.4798 0.7229 2.4250 4.2859 -0.0414 0.2550 0.7121 7.7237 4.5859 5.9086 10.0393 12.6751 6.9119
2.0011 -1.1044 4.6948 0.8938 1.3642 4.1407 4.7921 5.8122 -1.6103 0.2313 2.5993 -4.4155 -0.9826 0.5165 0.6923 4.9000 -2.1816 -2.6000 1.4792 2.7659 1.6237 -1.9572 -0.6448 -0.1272 6.6930 1.3586 4.0917 7.1078 7.3397 5.1509
2.7050 -2.7428 0.2628 -1.5992 1.0319 3.1420 3.3581 6.8283 -1.7194 1.1773 0.8363 -4.3356 -0.4368 1.6106 0.8851 7.4037 -2.6412 -2.2288 2.9005 4.2173 0.0295 -2.5041 0.6256 0.2057 6.4121 -2.8667 3.5849 5.3546 6.0523 3.7235
0.5225 -1.0454 -0.7244 -1.6537 0.9062 2.0213 1.5412 3.2847 -1.3961 0.8708 0.7108 -3.9282 -1.3364 1.3813 -0.6658 3.2403 -2.4665 -2.0017 2.2063 2.6350 -0.7085 -2.8561 0.5261 -1.9067 2.9954 -4.1980 2.1046 2.0863 2.4301 0.0518
-2.1358 0.3225 1.2009 0.1731 1.0966 1.3604 1.5642 -1.4229 -1.4485 0.3982 0.8648 -5.2852 -3.6950 -0.2502 -1.2656 -4.5624 -3.7790 -2.8941 0.2734 -0.3538 -1.7065 -3.6473 -1.3226 -4.0009 -0.4988 -3.6344 0.8659 1.1299 -0.6478 -2.6643
-2.5492 -1.8848 0.0860 -0.2083 0.5455 0.1307 2.4502 -4.3908 -2.0032 1.1175 2.8855 -6.0783 -5.3021 -0.5348 1.2879 -9.5459 -5.4588 -3.1324 0.7058 0.4186 -3.3144 -3.7329 -1.0076 -1.3568 0.9523 -5.7453 1.3751 5.8474 6.3092 -2.5800
-2.1830 -4.5313 -1.9926 -1.4796 -0.6645 -0.4606 2.0287 -5.7364 -1.8415 1.6270 3.8839 -5.3425 -4.9448 1.4463 3.0935 -8.9576 -5.4710 -1.8059 2.5683 3.7811 -4.5382 -2.9597 0.6195 2.3192 3.6505 -8.7355 0.5090 7.5755 11.9192 -3.0741
-1.4777 -4.2842 -0.2857 -0.7874 -1.5099 1.3282 0.0826 -3.6378 -0.8423 0.7791 0.2720 -5.9567 -3.1314 2.7468 1.1933 -3.0733 -5.1737 -0.7736 1.9994 3.6285 -4.9433 -3.1535 -0.7083 1.0329 2.3310 -8.1655 -3.4141 0.3929 1.7846 -4.2905
0.5281 -3.7082 1.5167 -0.0878 -1.6617 2.6978 -0.8776 1.6112 -0.3380 0.4684 -2.4690 -8.2938 -1.1329 1.6755 -0.3326 2.7008 -6.2709 -1.1470 -0.1016 -0.1041 -5.5487 -4.9537 -3.9446 -2.5727 -0.5371 -6.8625 -7.6540 -7.0697 -10.5459 -3.9503
1.8634 -5.2887 -0.1086 -0.4668 -1.4398 0.8106 0.3901 2.7572 -0.6354 1.4833 -0.0236 -9.6920 -0.9001 0.3919 0.6211 1.8963 -7.1224 -1.7445 -0.7182 -2.8077 -6.6076 -6.4453 -5.0906 -3.8331 -1.6280 -8.5802 -10.2226 -8.1532 -9.4447 -4.0566
0.0424 -5.7942 -1.6555 -0.2149 -1.4724 -1.4335 0.8812 -1.8682 -0.9843 1.8071 1.7636 -9.7729 -2.3521 0.7052 0.6378 -3.2750 -6.3787 -1.6210 -0.2682 -3.7126 -7.1591 -6.3179 -4.0380 -3.9751 -2.4066 -10.5365 -10.8328 -6.6759 -3.8275 -6.0459
-4.3476 -3.4008 -1.6444 -0.0450 -1.9833 -1.7331 -0.3732 -4.1703 -1.2630 1.2331 -0.2467 -10.0750 -2.8812 1.7235 -0.0278 -6.8750 -5.7128 -1.1576 0.3790 -3.6618 -7.3126 -5.7395 -2.9317 -4.4559 -3.6588 -11.1117 -9.9916 -5.5477 -3.3021 -7.3304
-8.3012 -2.4666 -2.4785 -0.8445 -1.9559 -2.8660 0.8482 -2.9218 -1.6202 1.4118 -0.8571 -10.7058 -2.5851 2.0572 1.1629 -8.1433 -6.2239 -0.9330 1.4771 -2.1369 -7.4901 -5.7333 -2.2613 -4.0646 -3.8610 -12.3231 -9.3073 -4.4879 -3.1351 -7.0500
-8.5759 -4.8100 -3.2781 -0.8773 -1.0338 -5.2104 4.8138 -3.6508 -1.8671 1.9496 1.2670 -10.6159 -3.6331 1.5024 2.1075 -7.4314 -6.7563 -1.0226 1.9777 -0.5084 -6.4899 -5.3365 -1.4738 -3.0962 -3.1370 -12.1739 -8.1398 -4.0452 -1.1827 -6.3621
-5.4541 -6.1063 -1.4752 0.2270 -0.6139 -4.7281 5.9388 -3.9743 -1.8807 1.6584 1.7350 -9.6594 -4.5493 0.9691 1.0908 -4.4363 -6.4246 -1.0329 1.2628 -0.8949 -3.9738 -3.8301 -0.5542 -2.8607 -2.7289 -8.3071 -4.0410 -3.0437 -1.1009 -5.2513
-2.9608 -5.0046 1.7698 1.0877 -1.1042 -1.5968 3.3201 -0.8055 -1.5656 0.9513 0.5079 -9.2072 -3.3458 1.4155 0.1508 -2.6280 -5.5256 -0.6888 0.5461 -2.8716 -2.1492 -2.2973 0.0147 -3.3117 -2.6011 -4.9026 1.0117 -0.1570 -1.6933 -4.1756
-3.1289 -4.6500 3.0094 0.9491 -1.6873 -0.6773 0.9900 0.4898 -1.0561 0.3004 1.4158 -10.0006 -1.9971 2.5327 0.0272 -5.0305 -4.5310 -0.1807 0.4486 -4.1266 -1.7838 -1.4531 0.0923 -3.6782 -2.0170 -4.4803 2.6096 2.1948 -0.2944 -3.6221
-4.4369 -4.9696 1.0190 -0.7505 -2.7139 -2.6435 -0.8769 -1.7480 -0.8751 -0.5993 3.4184 -10.4638 -1.5949 3.2082 -0.2043 -8.6923 -3.3809 0.5260 0.6079 -2.8868 -0.5690 -0.3812 0.2688 -3.1428 -0.7657 -2.8181 1.6907 2.1263 1.0407 -2.4211
-5.4927 -4.1529 -1.3646 -2.6714 -4.1731 -3.7216 -3.3666 -2.5087 -0.9232 -1.5841 1.4294 -9.5688 -0.7279 2.9602 -0.4317 -9.3744 -1.9622 1.4683 0.6101 -0.7923 2.0387 1.1332 0.8223 -1.9784 0.2896 0.7578 2.4124 1.8357 1.2598 -0.4491
-5.7784 -4.0063 -0.8091 -1.7601 -4.2031 -3.0160 -3.0694 -1.5623 -0.4595 -1.9093 -4.2844 -8.6155 -0.1434 2.1591 -0.4207 -6.5021 -1.2404 1.8339 -0.0958 -0.8050 3.2773 1.8232 1.2337 -1.4853 0.3809 0.9374 5.2094 3.8898 4.0365 0.7834
-4.9345 -6.0491 1.4605 1.0380 -2.3750 -2.5762 1.4875 -1.2518 0.4289 -1.2076 -6.9242 -8.0755 -0.8642 1.7108 -0.3861 -2.5898 -2.0465 1.3608 -1.1452 -1.8618 2.0133 1.4300 1.4420 -1.4162 0.4769 -2.8219 7.5004 7.6395 10.5606 0.5339
-3.0267 -8.1883 2.7704 2.2451 -0.9983 -2.1661 5.2112 -0.4704 0.9886 -0.0732 -3.5209 -7.4232 -1.2479 2.3165 -0.4340 -1.7306 -3.3433 1.0254 -1.3700 -2.0125 0.1654 0.7647 1.5037 -1.2263 0.9159 -5.4660 6.7087 8.7660 14.2040 -1.4510
-0.9869 -7.7989 4.6085 2.8560 -1.1582 -0.0365 4.9159 0.2612 1.2951 0.5985 0.7507 -7.3202 -0.9618 3.1847 -0.6873 -5.0085 -3.8318 0.8255 -0.9672 -2.5821 -0.9411 -0.3116 0.5291 -2.5801 -0.1399 -5.5097 1.4169 3.0752 7.9549 -4.4499
-0.7399 -4.1645 7.5261 4.6420 -1.0517 2.2908 4.2502 -0.3117 1.7954 1.0414 2.3084 -6.9420 -1.0143 3.0777 -0.5797 -7.0833 -3.1836 0.2304 -0.7721 -3.4040 -1.3053 -1.5984 -0.9841 -5.1503 -2.1525 -5.2428 -5.0179 -5.6982 -3.8316 -5.3119
-1.0658 -1.1356 6.6481 4.4878 0.0233 1.4558 5.8159 1.0737 1.9965 2.0989 4.1171 -4.2551 0.1842 2.8986 0.8546 -3.4910 -1.2032 0.6465 -0.0020 -2.1984 -0.6311 -1.1779 -0.2082 -4.6951 -1.3334 -4.5164 -5.5883 -7.2790 -7.9041 -1.6675
1.0868 -2.9851 1.7443 1.4435 0.1250 -1.0772 7.0185 5.5226 1.3630 3.1733 6.2734 -1.4443 3.2228 4.0520 2.4476 2.0606 1.1492 2.8059 1.8920 0.1885 0.7446 1.2780 3.0186 -0.6268 2.5954 -1.9133 0.0306 0.0537 -0.5267 3.9749
-0.8562 -2.7558 1.7323 0.8266 -0.8708 -0.4401 6.8008 7.6114 0.4427 2.9315 4.6802 -1.9630 4.3011 4.9165 2.0739 3.1017 1.5352 3.7768 2.8831 1.6139 1.0616 2.7048 4.4476 1.7594 4.8718 0.3004 3.7006 5.2720 5.8502 6.1209
-13.1782 6.8760 8.9712 4.2492 -0.6783 2.5671 7.4665 5.1066 -0.0622 2.0717 2.3608 -3.8722 1.8215 3.4830 1.4499 -0.5908 0.0219 1.7964 1.9602 2.3348 -0.0286 1.7742 2.7207 0.8986 3.6625 -0.7690 2.5679 3.0750 3.6491 3.4440
-21.1718 14.1125 13.2593 6.1735 0.3395 3.3650 8.4123 3.2723 0.0460 2.4676 4.9763 -3.4184 0.1305 1.6046 3.6889 -2.5580 -0.1269 0.3442 2.0516 3.3502 0.2046 1.8259 2.4962 1.7083 3.5156 -2.5063 3.0243 2.1210 2.6312 1.4921
-12.0113 8.5742 10.0923 4.4387 0.0813 3.1825 6.6865 5.1271 0.7681 3.6295 7.5744 -0.7185 2.0139 1.8957 6.5246 1.2131 2.4036 2.2004 4.7228 5.0724 3.3372 4.6777 5.7778 5.5569 7.1207 -0.8347 6.7883 6.8512 8.6499 4.0736
0.0642 1.5987 6.7401 2.8715 -0.7922 5.1558 2.7235 6.5004 1.6351 3.5660 4.2758 1.6588 4.3888 3.7165 6.2379 6.3669 5.2723 4.8353 7.1465 7.2494 6.6310 7.3119 8.1755 8.1195 10.8168 2.6779 8.8354 10.5947 13.0015 7.9055
3.1862 0.5039 6.4660 2.8244 -1.1855 6.5875 -0.5677 4.5250 1.8534 2.6346 1.1115 1.7410 4.4916 5.3039 4.7931 8.0213 6.4162 5.5625 7.7141 8.5073 7.0748 7.5884 7.3642 7.9531 11.6444 3.8951 8.7009 10.5607 11.8498 9.5420
4.2633 -2.2507 5.8969 2.4607 -1.9400 4.7580 -0.8333 2.7219 1.2078 2.5751 3.9491 -0.3973 3.3441 5.5725 5.1230 6.5944 5.2534 4.5788 7.3969 7.8517 4.9210 5.9749 5.3150 6.4675 9.9663 1.4222 6.8364 8.2440 8.8874 7.7272
3.4725 -5.9449 5.3155 2.2980 -2.7306 1.6608 2.9891 2.8240 0.2547 3.0167 7.8705 -2.8425 1.7700 3.8047 5.7724 3.4361 2.1933 2.2293 5.7564 6.0992 2.1464 2.5885 2.3599 3.3464 6.0620 -3.2721 -0.0331 1.4879 2.7106 1.6016
-3.0090 -4.4093 6.3515 3.6023 -2.1426 -0.5846 8.1895 1.7425 -0.1863 2.7651 7.5627 -3.8519 -0.1059 1.4846 5.0232 1.1515 0.0371 -0.1837 2.8894 4.5806 1.0421 -0.5826 -0.7482 0.2329 2.4512 -6.1953 -7.3603 -6.0713 -4.3349 -3.9922
-6.3101 -1.7677 6.3561 4.3695 -0.8468 -1.1408 9.8707 1.0132 -0.0031 2.6399 5.2280 -2.9635 -0.1747 1.4237 4.0088 1.7696 1.1161 0.0852 1.6274 4.0529 3.0697 0.0793 -0.2341 0.7938 3.1057 -3.7505 -5.8761 -5.1193 -3.0595 -2.0701
-3.2313 -1.7953 3.7825 2.5594 -0.5151 -0.0617 7.9122 4.1352 -0.1970 3.5651 4.3629 -1.0530 2.1055 3.1103 4.1935 0.2123 3.3821 2.7597 3.0778 4.9084 7.0955 3.7947 3.8915 4.0418 6.5593 2.2715 1.8511 2.3407 4.6623 4.4142
-3.4653 -0.9636 1.9963 0.4505 -1.3973 0.6048 5.8580 5.7807 -1.1408 4.0706 4.5122 0.2063 3.2026 3.6709 4.9968 -4.7998 4.7071 4.9671 4.9671 6.6053 10.7977 7.1071 7.4627 6.6615 8.9962 6.7468 8.6093 8.2596 10.3226 8.0726
-6.6174 0.4488 3.2791 0.7074 -2.8932 0.1967 4.1158 2.5668 -1.5195 2.9868 4.0989 0.5370 2.3828 3.1079 5.1270 -2.9309 6.4292 6.4062 5.9991 7.9006 13.3266 9.9547 10.2681 9.1760 11.2762 7.6061 14.7571 13.7812 16.3307 9.2581
-3.7053 -1.6107 4.5593 1.4328 -4.2818 0.4872 1.8762 2.4590 -0.5609 1.9892 3.5783 1.4799 3.5401 3.7042 5.4409 7.3373 8.8637 8.3593 7.3279 8.8398 15.0352 13.0605 14.1413 12.4263 14.2899 6.8376 18.8404 19.3297 24.1489 10.4581
2.1339 -5.6423 3.2473 0.5444 -4.6841 1.1079 1.2725 7.1074 0.5648 2.3992 3.7471 3.2990 6.4053 5.7356 6.8334 12.8442 10.0842 10.0317 9.4121 10.4554 16.3820 14.6520 16.5583 14.1721 15.2677 7.1529 16.6325 18.3421 24.1530 10.0829
1.9724 -6.5489 2.6142 0.3228 -4.1019 0.8190 3.3614 7.1700 0.7488 2.8367 3.9143 3.9137 6.3084 7.3974 7.1810 9.6043 9.8526 10.0525 10.7655 12.1435 17.5292 14.1880 15.3650 13.4753 13.9917 9.6130 13.2925 12.8696 15.9185 9.1524
-1.9880 -3.5618 5.4009 2.2705 -3.5495 0.7640 5.4783 2.3926 0.3458 2.3100 4.1830 2.5377 3.3709 7.4121 5.6294 6.2763 9.1633 8.7087 10.1369 11.9231 17.9752 13.4287 13.5914 11.9844 13.2025 12.6731 15.0625 11.9805 11.8289 10.8468
-2.2813 -1.1818 7.3446 3.2395 -3.5376 0.8384 5.6443 1.0561 -0.0068 1.5881 5.6531 1.4764 1.7554 6.0049 4.4985 6.1578 8.0613 7.1245 7.8920 9.3884 17.3247 12.8788 13.5430 10.3385 12.8414 13.3029 16.7462 14.4700 14.0832 13.0817
0.7668 -2.6270 4.7191 1.2725 -3.9628 -0.2788 4.3855 2.9279 -0.2593 0.9453 6.3058 1.6829 2.1399 4.5119 3.8758 5.7114 6.6427 6.0736 5.4028 6.6016 15.9424 11.7302 13.1068 8.5042 11.8780 10.9093 13.6478 14.2380 15.3908 12.9432
1.6431 -4.5749 1.9545 -0.4198 -4.4585 -0.3223 2.5227 3.0272 -0.4129 0.5746 3.5185 0.6320 2.2451 4.1664 2.6055 2.5326 5.1255 5.2842 4.0256 5.7992 13.9178 9.8100 10.8238 7.4594 10.9813 8.1656 10.4134 12.3602 15.0337 11.8401
-1.4729 -2.5410 3.4127 0.8307 -3.8608 2.0129 1.6163 1.9031 -0.4465 1.5638 0.7289 -2.6425 0.9668 4.5462 2.5954 -2.7026 2.8822 3.5834 3.6476 6.4888 10.7537 7.0315 8.1211 6.9601 9.1941 6.0147 9.7234 10.1738 13.3554 9.5940
-5.4196 0.6455 5.1925 2.6685 -1.7189 2.0030 3.8419 0.7780 -0.7411 3.4243 2.7592 -5.8541 -1.5920 3.8067 4.0550 -5.7667 -0.3585 0.4793 2.3506 5.6766 6.2827 3.1301 5.5901 4.8802 5.2452 2.3977 8.5810 5.9572 7.6398 4.6289
-5.8759 -0.3765 3.4083 2.4630 0.1580 -1.9851 8.0291 -1.0009 -1.5995 3.8831 7.0394 -7.8638 -4.5305 1.0817 3.1734 -4.0509 -3.8237 -3.1369 -0.9977 1.9529 1.1242 -1.2949 2.3336 0.8257 1.6021 -2.4339 6.2295 2.5112 2.8075 0.6682
-2.1901 -3.5624 1.6271 1.7281 0.3017 -3.6489 9.7851 -1.4087 -2.5674 2.4741 7.1722 -9.3910 -6.0745 -1.9009 -0.4491 -1.9947 -6.6372 -6.0428 -4.7933 -2.4256 -3.2239 -5.0006 -1.2178 -3.0557 0.1270 -5.1451 3.6162 2.7424 4.7864 1.1924
1.1880 -3.5680 2.9131 2.5106 -0.2577 -0.5683 7.7799 0.5582 -2.7644 1.1084 2.4750 -9.9606 -5.5118 -2.7627 -2.5742 -3.7568 -7.6601 -7.4581 -6.6634 -4.6812 -5.4375 -6.9904 -3.5009 -5.4517 -1.5198 -4.8198 0.1541 2.3472 6.4078 2.2046
0.9234 -1.1023 4.6121 3.7842 -0.2669 2.0728 5.4093 1.9430 -1.9153 0.9994 -1.4514 -8.6030 -4.0200 -1.7797 -1.9368 -6.4886 -6.3460 -7.3584 -6.2669 -4.5880 -6.1567 -7.1355 -4.1163 -6.5243 -4.1500 -4.4447 -2.6055 -1.0181 0.9909 -0.2008
-1.3396 -0.0497 5.1752 4.0680 0.1151 2.1864 5.0315 2.2715 -0.9197 1.2119 -1.2017 -6.8913 -2.9305 -1.3511 -1.5762 -6.2592 -4.9517 -6.6881 -5.2595 -3.9944 -7.1499 -6.6790 -4.0827 -6.4248 -5.5691 -6.4546 -2.0824 -2.5550 -3.6554 -4.2431
-3.4531 -0.4421 5.8159 3.7134 0.6054 1.8443 5.2761 3.2695 -0.6724 0.6064 0.8072 -7.1002 -2.7654 -2.1668 -2.8231 -3.8461 -5.8402 -6.5093 -5.0149 -4.5772 -8.6982 -6.9821 -4.3408 -6.1872 -6.2306 -9.7596 -0.9803 -1.7870 -2.2839 -7.9754
-4.3268 -0.4314 5.5512 3.2559 1.2132 1.0400 4.6777 3.1818 -0.6485 0.0131 1.8602 -8.2035 -3.3945 -2.4317 -3.2669 -2.7366 -7.3261 -7.0082 -5.0292 -5.8150 -9.6943 -7.7836 -4.8224 -7.0564 -7.5998 -12.0842 -3.3896 -3.7216 -2.3279 -9.9973
-2.9235 -0.7440 3.7732 3.0174 1.8140 -0.1894 4.1574 0.6667 -0.1827 0.7437 1.7338 -8.2531 -4.3686 -1.4893 -1.2656 -4.5303 -7.2310 -7.8951 -4.2130 -5.8345 -9.9019 -8.3859 -5.4846 -8.0407 -8.2853 -13.4573 -7.0620 -7.1944 -6.4878 -8.7645
-1.5777 -2.0629 3.8117 4.0049 2.3353 -0.3738 5.1233 -1.7804 0.0453 1.8050 1.0704 -7.9385 -5.5436 -1.3292 0.7062 -6.5901 -6.8719 -8.9745 -3.3108 -4.9687 -10.2176 -9.1434 -7.2398 -8.2043 -8.4248 -15.1901 -8.6305 -8.5352 -9.2089 -7.8625
-3.4920 -2.1350 6.8926 6.0390 2.3438 0.0099 6.8358 -2.7923 -0.2885 1.4330 0.8125 -7.7273 -6.4638 -2.9411 -0.2061 -5.1781 -7.1064 -9.6313 -3.9193 -5.4924 -10.8419 -9.9851 -9.7351 -8.8122 -9.8601 -16.6061 -10.0961 -10.6901 -10.9146 -10.9435
-5.5313 -0.4707 8.8323 6.7422 1.2616 0.2784 7.1193 -2.0476 -0.1434 0.2935 0.5713 -6.5083 -5.3346 -3.9740 -2.0162 -0.7307 -6.1033 -8.5941 -5.0521 -6.6029 -10.5609 -9.4795 -10.0219 -9.3995 -10.0286 -15.7622 -12.2960 -14.5251 -13.7862 -12.6227
-3.5788 -0.3284 7.6377 5.1032 -0.3889 1.4571 5.7130 2.4637 0.5620 0.1718 -0.3560 -4.8448 -1.2971 -2.3603 -0.9579 2.1847 -3.4771 -5.4271 -3.9994 -4.8888 -8.2768 -6.9379 -6.7584 -7.3902 -6.2263 -12.7080 -11.1673 -13.7311 -13.1004 -7.9919
-0.7731 -2.4770 6.7435 3.6384 -1.4744 2.7910 5.2120 8.4109 0.5256 1.1314 0.3948 -4.2464 2.6166 0.2786 2.0073 0.9314 -1.1854 -1.9427 -0.9011 -0.8764 -4.8947 -3.8675 -2.8392 -3.4537 -2.2697 -9.7180 -6.0785 -7.3663 -7.3332 -2.0992
-0.3533 -4.6225 7.3132 4.3479 -1.5403 1.9414 7.5090 8.9726 -0.1315 2.3536 3.9975 -4.1083 2.9586 1.5208 3.5955 -0.5205 0.0802 -0.2435 1.6112 1.7872 -2.3874 -1.8488 -0.4448 -0.3217 -0.9736 -8.3823 -2.1751 -1.9963 -1.3821 0.1512
-0.0345 -5.9181 6.3003 5.2124 -0.9557 -0.1066 9.8835 4.7346 -0.1005 3.4848 6.2422 -2.9445 1.3197 1.7329 4.2152 1.8581 1.3470 0.2475 2.9396 2.9865 -0.6900 -0.2129 1.9443 2.0736 0.9500 -7.6934 -1.3271 0.5052 3.5801 0.1906
-0.1469 -5.1256 4.0444 3.9682 -0.7341 -0.0918 7.9103 2.6132 0.1965 3.8698 4.4704 -0.9535 1.0041 2.2273 5.4400 3.1180 2.7627 1.1784 4.2232 4.5962 1.7125 2.1703 4.8355 4.1544 3.9801 -6.0689 -0.0803 2.4843 7.7966 -0.8644
-3.3902 -1.8470 3.3024 1.8977 -1.5644 1.0058 3.3850 2.7089 -0.3392 3.1687 2.2010 0.4127 1.4071 2.9996 6.0684 -1.2585 3.7449 2.2976 5.1849 5.6391 4.5305 4.5597 6.2669 4.3732 4.6690 -3.7620 2.4707 2.8518 7.5481 -2.1593
-5.8933 -0.7304 2.5646 0.7164 -2.7126 -0.6906 2.5768 1.1271 -0.9570 2.5160 2.5355 0.9398 1.1190 3.7733 5.5794 -4.0362 4.9148 2.9618 5.2473 5.3400 6.9515 6.1992 6.4591 3.0728 4.4790 -0.9503 4.3384 1.6066 3.2394 -0.9531
-3.7939 -3.0375 1.3175 0.2737 -3.1621 -3.4057 5.3034 0.4154 -0.8930 2.6076 4.5359 1.7697 1.2979 4.0996 5.5845 0.7457 6.5916 3.5263 5.1000 5.8266 9.4175 7.5723 7.1994 2.6720 6.6356 2.7226 6.1567 2.5409 1.1377 1.8085
-1.5548 -2.3262 3.6234 0.5710 -3.1713 -1.9369 5.6687 3.8578 -1.0410 2.3767 6.9796 2.6046 2.3062 3.0952 5.7985 7.2441 7.0824 3.6353 5.1201 7.5192 11.0317 8.2653 7.6966 3.5425 8.8891 4.9892 8.5287 5.4434 3.4237 3.3112
-1.4957 2.1773 8.5912 1.6772 -3.3821 2.5844 3.0270 7.2857 -1.6131 1.1662 8.4080 2.6199 2.6090 1.5662 4.6089 10.4367 6.0680 3.0055 5.1839 7.8106 10.8738 7.6866 7.0781 4.3960 9.2045 4.3889 9.8406 6.9721 6.9760 5.8336
0.1647 4.1917 11.2811 3.0284 -3.3566 5.9776 1.7364 6.6248 -1.4601 -0.1048 6.5914 2.9763 2.0485 1.6756 2.8079 11.7922 6.1377 2.9587 5.5581 6.4715 11.5000 7.3893 7.1593 4.8886 10.3847 4.7019 11.0808 8.3816 9.4352 10.9249
2.0030 3.9368 13.0815 4.7293 -2.3317 8.4952 3.1234 5.1930 -0.6013 -0.4870 3.3463 3.8064 1.7996 3.2114 2.1708 11.4969 7.7572 3.6787 5.8111 6.0046 13.9933 8.2782 8.3144 5.2054 13.4204 7.6591 14.2635 11.8053 10.8589 14.2649
0.7865 5.0269 16.2515 6.7188 -0.7421 10.2518 5.6169 5.9915 -0.2791 -0.0015 3.3105 3.4904 1.6360 3.5688 2.3023 9.8462 7.9894 3.2114 4.8281 6.2708 14.5048 8.2164 7.9057 4.8576 14.5886 8.8464 16.7672 14.1655 12.3077 13.9919
0.4153 5.2219 16.8674 7.5981 0.2089 8.8940 8.2153 6.4940 -0.6726 0.9519 6.0497 2.7810 0.6720 1.6242 1.9144 8.7224 5.7850 1.1122 2.5927 5.1254 11.4207 5.8123 4.8509 2.8983 11.5105 6.6096 14.6222 11.7125 12.4095 12.3839
1.9526 3.3150 13.7194 6.7164 -0.1465 5.7042 9.6170 6.1531 -1.0029 2.3004 7.2651 2.5198 -0.2263 -1.0507 1.9436 5.3469 2.9448 -1.0588 0.2194 3.1453 7.9573 2.7030 0.8743 -0.6163 6.1674 4.1142 8.5463 5.4429 7.5582 8.5787
0.5097 2.4220 11.4173 5.4912 -1.4711 3.9970 8.7921 7.0919 -0.9993 3.7204 6.2548 0.7245 -0.1343 -2.4327 3.5938 -1.5803 0.5972 -2.6918 -1.5322 1.7575 5.5330 0.3755 -2.3875 -3.9424 1.5950 1.7623 2.8742 -0.4567 -0.2852 2.1381
-1.9871 1.8300 10.9639 5.3488 -2.3958 2.6908 7.7226 6.9829 -0.7560 4.0423 5.4254 -2.0585 -0.3876 -2.1839 3.9426 -3.8953 -1.0288 -4.0109 -3.1165 -0.7158 2.8269 -1.5027 -4.4610 -6.2065 -1.5172 -2.1605 0.2029 -3.3937 -4.5747 -2.6095
-0.5807 -1.2072 9.1896 5.6641 -1.7596 -0.3385 8.8545 4.2465 -0.3210 3.0770 5.3405 -2.4583 -1.5780 -1.6855 0.5628 1.4303 -1.6729 -4.6436 -4.8341 -5.0639 0.2829 -3.1107 -5.5388 -8.4722 -4.4514 -5.8840 -0.8532 -4.9143 -5.6506 -4.5328
1.5558 -4.1740 6.8304 5.2965 -0.3940 -2.1458 10.1585 3.8604 0.1112 2.5683 4.4517 -1.7196 -1.6460 -1.8291 -1.7447 3.5153 -1.9053 -4.4477 -4.8513 -7.0153 -0.9439 -3.7518 -5.7017 -9.9328 -7.1375 -6.5729 -1.8882 -7.0275 -8.0177 -6.7598
0.5303 -3.6603 7.4902 5.0880 -0.0670 0.3363 8.0674 6.5954 0.4415 3.0360 2.3542 -3.6155 -0.3775 -1.8407 1.0912 -2.6108 -2.5291 -4.0431 -2.1135 -4.0965 -2.0237 -3.4554 -4.7896 -8.3897 -7.9439 -5.8570 -1.9120 -8.2195 -9.1533 -8.3882
-1.5914 -1.2746 9.9332 5.6917 -1.0060 3.2099 4.1436 5.7004 0.6883 2.6727 1.2447 -6.1325 -0.4107 -1.3449 3.8892 -6.7828 -3.1545 -3.9023 0.0556 -1.3619 -4.1798 -3.3611 -4.0035 -5.9458 -7.1814 -7.7740 -1.0528 -7.3430 -6.2487 -7.3355
-2.4066 0.0770 10.1231 5.5165 -1.9051 2.4758 2.5401 1.5862 0.6953 1.0668 2.2548 -4.8953 -1.6114 -1.1913 1.7208 -2.7854 -3.0287 -3.9386 -1.1711 -2.9048 -5.9508 -3.9719 -5.0463 -6.6137 -6.5280 -11.8162 -2.0656 -7.0908 -5.1838 -6.2131
-1.4899 0.6081 9.1966 4.4328 -1.6802 1.8058 3.1781 1.9288 0.5039 -0.0546 3.0917 -1.3520 -1.2382 -1.5145 -1.8129 2.7410 -2.2390 -3.7944 -3.4251 -5.1872 -5.3853 -4.4237 -6.7477 -9.0921 -5.9104 -12.9627 -4.4772 -8.5455 -8.5535 -6.5931
-0.2479 1.9460 10.5260 4.5128 -0.6811 3.9025 3.6106 5.9158 0.5040 -0.0579 3.3041 0.4723 0.4997 -1.5517 -2.3142 3.4120 -1.0799 -3.1025 -3.9471 -4.5261 -2.8691 -3.7614 -6.6257 -9.2766 -4.5845 -9.6026 -3.7209 -8.1313 -8.3695 -5.8174
-1.3825 3.8885 12.7986 5.6742 -0.2374 4.9882 3.8211 6.9478 0.8468 0.4121 5.2328 0.8056 1.6468 -0.8752 -0.3094 0.4357 0.6281 -1.7295 -2.9379 -2.3133 -0.2065 -1.9915 -4.9373 -7.0298 -2.9493 -6.1271 0.0809 -4.7364 -2.2969 -3.3367
-3.6295 4.5092 13.2831 6.1901 -0.8818 4.1135 4.6697 5.6904 1.2474 1.1483 7.1208 1.9548 2.3970 0.4614 2.1928 -1.6193 2.7327 -0.0104 -0.9124 -0.5426 1.4443 -0.1080 -3.2149 -4.9713 -1.3153 -6.0596 1.4489 -2.4679 0.7518 -1.8351
-3.3046 2.9383 12.0836 5.7179 -1.9834 4.3103 5.5015 6.1414 1.3772 1.8095 5.3937 3.1809 3.4554 1.8248 3.6199 0.1709 4.1588 1.4201 1.2123 0.3939 1.8547 0.8636 -1.4893 -3.7738 0.8504 -7.5501 0.4653 -2.3482 -0.7634 -1.4578
-1.6505 1.0141 10.5080 4.7358 -2.8227 5.3764 5.4297 8.0532 1.2850 1.8708 2.4377 2.4561 4.5646 2.4062 3.5070 2.7342 4.3112 2.2606 2.0056 0.7604 1.6016 1.0765 0.2436 -2.4657 3.2153 -7.0643 1.8953 -1.2841 0.5465 -0.0007
-0.6917 0.9642 10.0609 4.1594 -2.6694 6.1458 4.8947 10.0125 1.3931 1.9729 2.8548 1.5546 5.6241 2.2528 3.3973 1.3653 4.3521 2.8141 2.4002 1.6012 2.3686 1.4622 1.0651 -1.1855 4.0060 -3.8319 4.2240 -0.3488 2.7054 2.1070
1.8851 1.5751 11.3428 4.9566 -1.5732 7.0455 4.9388 11.2248 1.8827 2.9279 6.2948 3.4462 6.2588 1.9227 4.1497 -1.0836 5.3307 3.4448 3.7602 2.8972 5.1333 2.5889 1.0527 -0.5834 2.8932 -0.0878 4.0937 -1.1553 1.0787 2.5969
5.0522 0.2252 12.7307 6.3059 -1.3871 7.0118 5.2335 10.1165 2.3539 3.8976 8.7984 5.6448 5.7028 1.7779 4.6888 -0.4760 6.0605 3.9555 4.5587 3.0855 7.6417 4.2348 1.3742 -0.0536 2.1719 0.9636 4.5115 0.5595 3.2846 1.3488
3.4715 -1.4531 12.7180 6.6210 -2.8298 5.2856 4.9583 6.8258 2.3810 3.7188 7.7575 4.6233 4.1814 2.0539 4.5905 1.0281 5.3287 3.7791 3.6623 2.1296 7.3328 5.3091 2.1083 0.7057 3.0719 -1.8188 6.5019 4.8514 11.4091 0.2887
-1.5363 -0.4033 11.5978 5.8180 -3.6220 3.4606 5.0142 4.6449 1.9624 2.8803 4.8021 3.1350 2.9064 2.4055 4.1046 2.2974 4.4657 2.9334 2.4936 1.1696 6.1944 5.1827 2.3031 0.3940 3.8176 -5.1999 6.0657 4.4828 11.6252 0.7020
-3.7473 1.3634 9.7783 4.5410 -2.6422 2.1708 5.7048 5.3883 1.3385 2.6178 3.3283 3.7972 2.6607 2.1459 3.3759 2.9893 5.0014 2.3588 1.8720 0.4439 7.7587 5.1543 2.1570 -1.1720 2.9094 -4.1805 4.7635 -0.2822 0.1831 1.3329
-3.1605 1.2243 7.4613 3.3808 -1.4296 0.7145 5.1802 5.7594 0.9389 3.0488 3.1250 4.3794 2.8159 1.8318 3.1324 0.3116 6.5211 2.8283 1.5152 0.2048 11.5028 6.6476 2.9488 -1.8319 1.6375 1.6840 7.4638 -1.3859 -8.5927 0.4856
-2.5745 1.3948 5.6876 2.9859 -0.5231 0.0422 3.1855 3.4212 1.1400 3.0921 1.7946 5.4413 2.5566 2.6896 2.7622 -1.3296 8.4075 4.0125 1.8184 0.3484 14.9040 9.0049 4.9269 -0.4926 2.0635 7.3066 12.1439 2.5149 -7.0553 0.2520
-0.1719 2.3283 4.8764 2.6776 0.3416 1.4633 1.8143 2.9581 1.4760 2.2826 -0.0581 8.9015 2.7009 4.2158 1.1004 3.2820 9.9299 4.9827 3.0937 0.1985 16.9301 10.6577 7.2379 1.3961 4.0718 8.9427 14.6029 6.4956 -1.4428 3.4307
3.7171 0.4751 4.2019 1.6076 0.1811 2.9908 2.6930 6.8582 1.1002 1.8939 0.2394 10.2305 3.6499 4.5323 0.4804 5.3034 9.3906 5.1103 4.5348 0.2651 16.7015 10.8599 9.1490 2.3821 5.4860 7.8836 15.1150 8.6444 2.9402 7.2344
3.0906 -2.5826 4.4396 1.6599 -1.1440 1.6080 6.0568 8.6528 0.4039 2.6991 3.4462 6.5615 3.6256 3.0494 2.2750 -1.1328 7.0805 4.5314 4.6522 0.1896 13.9969 9.8847 9.8475 2.0409 4.6648 5.9529 14.3544 9.8142 6.3089 7.1726
-2.5964 -1.2307 7.2213 4.0955 -2.2685 -0.6370 8.8794 5.8784 0.6569 3.2413 6.5437 3.6127 2.7048 1.4602 2.4748 -4.8350 5.9982 4.2213 2.9866 -1.8815 11.5470 8.9772 8.9190 0.4927 2.4938 3.5116 12.3779 10.0510 8.4167 4.3341
-5.8703 3.9981 11.4887 6.4028 -2.8828 1.2988 6.0325 5.4030 1.9142 2.4894 5.1565 4.6147 3.5712 1.6883 -0.3728 -0.1568 7.0973 4.9089 1.1111 -4.8329 11.5746 9.2609 7.3244 -1.5757 0.7641 2.3114 11.0424 8.4860 6.5421 2.1892
-3.7905 7.8797 14.7564 7.0823 -3.6176 6.4379 -1.4179 7.7794 2.7190 1.2714 -0.1227 5.8113 5.4457 2.9326 -2.3558 2.5649 8.2102 5.7164 0.0833 -6.2878 11.9338 9.9879 5.9457 -3.7103 -0.8633 3.5381 10.9830 5.4157 0.9884 0.6216
-1.2331 7.6777 14.5888 6.8472 -4.3889 8.1476 -5.5895 6.1355 2.1255 0.2135 -3.8505 5.6032 5.0893 2.5480 -2.2838 -2.8849 8.2411 5.4409 -0.4094 -6.5171 10.3950 9.8041 5.0060 -5.0071 -2.6223 5.3624 11.2048 4.4662 -0.2997 -0.5246
-1.4661 4.4196 9.5395 4.8467 -4.7400 4.3204 -3.2506 2.3863 0.9925 -0.2529 -3.3736 5.1211 3.6527 0.4149 -1.3590 -10.4216 7.6910 4.4083 0.4438 -5.2623 8.4532 8.8166 4.9725 -3.8865 -2.5450 6.4720 11.5930 7.4090 6.7378 1.1751
-2.5879 1.5663 3.3368 1.6848 -4.5434 -0.2656 0.7001 3.1146 0.5206 0.7005 -0.8293 3.4219 3.5683 -0.9078 1.0677 -12.9141 6.0261 2.9446 2.4247 -2.7143 6.8199 6.8717 4.7971 -2.2599 -1.8534 6.3904 10.4702 8.1171 10.7242 3.6423
-2.1096 1.1729 1.2166 0.7806 -4.0698 -1.6411 2.3302 4.8178 0.5575 2.3991 0.4601 1.1163 2.8361 -0.5783 3.3674 -9.7808 2.9817 0.4754 2.5462 -2.7421 3.7129 3.0856 2.4123 -3.9349 -4.0291 3.5334 6.1274 2.4376 3.2551 1.2050
-0.8259 1.4750 1.9461 1.9760 -3.5011 -0.1621 3.1021 2.7608 0.5943 3.1635 -1.1979 0.8649 0.2654 -0.1753 2.3116 -5.4749 0.2621 -2.4039 0.4628 -5.8129 -0.1232 -1.2591 -1.2751 -7.1399 -6.3370 -1.0706 1.7112 -3.6623 -5.6919 -4.4851
-1.1471 1.7151 3.5681 2.8714 -2.3287 2.7467 5.3000 2.2675 0.8526 3.1406 -2.9775 0.9243 -1.1272 -0.7480 0.0854 -3.7691 -1.3007 -4.5111 -1.0267 -6.7387 -2.1883 -4.1381 -4.1334 -8.0422 -4.7023 -3.3131 0.0354 -6.2707 -8.4559 -6.5663
-2.1830 4.2442 7.7545 4.3997 -0.6649 5.7757 8.0303 5.3434 1.1359 3.5358 -0.2859 -1.2849 -0.7277 -1.9331 0.6275 -4.4228 -2.5012 -5.8496 -1.6106 -4.4644 -2.7370 -5.7508 -6.1816 -7.5285 -1.7815 -1.6603 -0.5385 -7.1864 -7.9899 -2.6073
-1.8766 8.3454 10.9839 6.2465 -0.1462 6.6469 8.3076 4.9141 0.6581 4.1332 4.8426 -3.0333 -1.0478 -2.7433 1.9767 -4.9004 -2.8852 -6.1558 -2.2253 -2.7858 -2.8633 -6.3536 -6.8992 -6.6001 -0.0458 0.8607 -0.4837 -3.9519 -1.4356 4.4283
-2.3284 8.7828 8.5354 5.5505 -1.2348 4.7543 5.7863 1.8738 -0.2761 4.1012 5.5832 -4.0591 -1.5288 -2.3729 1.0838 -2.8918 -2.2313 -5.2676 -2.0828 -2.3816 -2.7526 -5.8769 -5.4164 -4.5410 1.4180 -0.3929 0.2810 2.1079 9.6216 7.7059
-4.5650 4.0866 5.5463 3.9938 -2.0518 2.8528 4.5954 3.0923 -0.7058 3.8186 1.7694 -7.5619 -1.0893 -1.3940 0.2291 0.3069 -2.5331 -5.1135 -1.6167 -2.1830 -3.3162 -6.2326 -4.4861 -3.9864 0.8489 -5.9135 -1.5360 -0.0978 8.4380 2.2514
-4.7426 -0.4784 6.1712 4.2818 -1.6960 2.0172 7.3480 4.3903 -0.9883 3.9133 0.4991 -8.6699 -2.0851 -1.5471 1.3333 -0.7719 -3.9147 -6.7312 -2.5353 -3.6965 -4.3444 -8.1111 -6.7642 -7.3675 -3.0063 -10.2146 -6.6334 -11.3491 -8.0449 -7.1619
-2.1462 -1.3140 5.0542 3.5359 -1.4638 0.2431 10.6360 1.4213 -1.7307 3.9006 3.9573 -1.8120 -4.0248 -3.0471 1.6374 -5.8780 -3.4354 -7.4906 -3.5685 -6.2607 -3.1374 -7.9774 -8.8423 -10.5189 -5.5678 -9.0015 -8.8923 -16.5733 -18.5697 -10.7696
0.0881 0.3493 1.3456 0.4484 -2.2508 -1.2283 10.0671 1.5797 -1.8250 3.3126 5.8679 6.0673 -2.5461 -3.4971 0.3486 -5.6863 -0.1800 -5.1704 -1.8552 -5.1618 2.0661 -3.1316 -5.9135 -7.9273 -2.4312 -2.0738 -2.3066 -7.9747 -10.6486 -3.3919
1.7199 3.9570 2.0379 -0.6726 -3.6053 1.2173 5.5247 6.5548 -0.3899 2.4115 3.1877 7.7026 1.5551 -1.6432 0.3204 1.4567 3.5151 -1.7462 1.3696 -0.6810 9.1253 3.4066 -0.2627 -1.7269 3.8004 8.7416 10.0944 5.0456 3.8392 10.3528
2.4163 7.7191 7.9554 1.7966 -4.6948 5.5245 0.5074 7.6281 1.2278 1.1706 0.8341 5.8875 3.2212 0.0308 0.9035 5.6682 5.6323 -0.2208 1.8310 0.7384 12.9823 6.6220 1.6466 1.0312 6.9778 15.7589 17.5501 10.6075 9.9133 16.4441
0.0644 5.7033 11.6493 4.1484 -4.7842 5.4839 -0.4437 3.6454 1.6270 -0.2140 1.1184 3.8415 1.8936 -0.7166 -0.9456 4.5921 5.8184 -0.6588 -0.9466 -2.0532 10.8896 5.7574 -0.7921 -1.2315 5.2245 10.9722 14.9672 7.3841 6.9161 7.6718
-3.6460 -2.2158 8.1867 3.3272 -3.9156 0.1962 3.1266 0.7067 1.1777 -0.7426 0.3236 1.5461 0.2769 -2.4623 -3.6847 2.8763 4.2732 -1.7423 -3.3858 -4.3811 5.9289 3.4432 -2.9353 -4.2846 1.3995 -0.5119 8.0294 0.6224 0.9249 -4.6377
-5.6835 -6.5969 1.8259 0.4136 -3.1614 -3.9604 4.9757 0.2478 0.7613 -0.5971 -2.7439 -0.0099 -0.6218 -2.8714 -4.1551 -0.8998 1.7982 -2.8391 -3.8734 -5.0257 2.5369 1.2922 -3.3788 -6.0412 -2.0579 -7.6980 1.8455 -6.7985 -6.5910 -8.5429
-5.6743 -3.4025 0.2520 -1.3071 -3.5421 -2.1927 0.5307 1.2080 0.7406 -1.1852 -5.0002 -0.1613 -0.1394 -1.5912 -3.3730 -5.3979 0.6350 -2.7131 -3.3448 -4.8698 2.1488 0.5445 -3.0412 -6.2711 -3.7442 -7.9089 -2.1110 -11.3820 -12.3804 -6.4818
-3.0039 -0.2682 2.6080 -1.1515 -5.0594 1.6385 -5.9544 2.8003 1.0007 -2.1881 -4.2396 0.4779 1.8168 0.2506 -2.8892 -4.8862 2.1551 -0.5088 -1.8999 -3.3497 4.4351 2.6382 -0.7332 -3.5675 -2.6116 -3.5499 -0.9243 -8.2572 -9.5214 -3.7633
0.9462 -1.4238 2.7177 -1.1179 -6.3993 1.7522 -7.9832 2.4196 1.0119 -1.9952 -0.8574 1.4487 2.6444 1.2543 -1.4209 -3.1862 3.9378 1.6847 0.3054 -2.1313 7.5392 5.5918 2.6025 0.2895 -0.7147 2.2990 3.8740 -2.1679 -2.9979 -0.8692
1.1125 -1.0509 2.3079 -0.9130 -5.9472 0.3005 -5.1720 0.6253 0.5173 -0.8255 2.5559 1.9137 1.0926 1.1731 0.9972 -4.6915 3.1609 1.7632 1.9319 -2.9590 8.6234 5.9122 3.3687 1.2490 -0.7198 5.6266 5.7619 -2.1165 -4.1981 1.2406
-2.4049 2.9041 5.0003 0.4486 -4.2535 1.8312 -1.8607 1.3943 -0.0054 -0.1250 3.0970 0.9073 -0.1867 1.3794 1.9116 -4.0161 1.0604 0.9734 2.8076 -3.2474 7.4114 4.4625 2.6436 0.4131 -0.6905 5.9958 4.3801 -4.9205 -8.7108 2.1989
-3.2386 3.8526 5.5929 0.9076 -3.6927 3.4561 -0.7076 2.8106 -0.1991 0.0120 1.0892 -0.8077 -0.1611 2.3514 0.9417 -0.8038 0.1384 0.8080 3.7040 -1.7732 6.0301 3.9378 3.9789 0.9719 0.9187 5.9424 4.0538 -3.5350 -6.6578 3.8241
-0.7902 0.3103 1.5256 0.1330 -4.5695 0.9438 0.2339 0.4487 -0.2579 0.5354 -0.3970 -1.2181 -0.8323 2.3671 0.2754 -1.5266 0.3187 0.5102 3.8498 -1.6377 5.4285 3.7385 5.5362 1.4440 0.4228 5.6210 5.0415 -0.6269 -2.3719 4.9753
-0.9730 -1.1419 -0.6262 0.6928 -4.9245 -2.6687 2.8785 -2.1818 -0.2832 1.6253 -0.2293 -0.1076 -1.8078 0.7137 1.0103 -4.6579 0.5145 -0.2633 2.5238 -3.4151 5.1290 2.7829 4.2079 0.1675 -3.1136 4.8634 5.7968 0.0751 -2.2997 3.3111
-3.4929 -0.0032 -0.1402 1.3294 -4.4690 -3.7793 4.5076 -0.9699 -0.2708 2.2915 -0.8537 0.5365 -1.2823 -0.6482 1.9623 -4.6865 0.5900 -0.4752 1.3651 -4.6117 5.0496 2.4243 2.4099 -0.7135 -4.7755 5.0576 6.2691 0.0153 -3.7635 1.0131
-2.4771 -2.4356 -3.2079 -0.7189 -4.3261 -4.4189 2.7948 -0.0447 -0.4392 1.7485 -3.8604 -0.5434 -0.8058 -0.3480 1.7365 -2.7190 0.2343 -0.2366 1.7628 -5.2251 4.7184 2.7231 2.9884 -0.4657 -3.8529 4.9921 5.5838 -0.7283 -5.0895 0.0854
0.1125 -6.6981 -7.4280 -2.8326 -4.0725 -5.7635 0.5953 -2.0327 -0.8794 0.6807 -6.3136 -3.0184 -2.0874 0.5972 0.8739 -2.2877 -1.4133 -0.8756 2.4225 -5.9620 2.1769 1.1042 3.3963 -1.2925 -5.0432 1.7528 2.3800 -3.5986 -8.5919 -2.2954
-1.8010 -5.9418 -6.4951 -2.2918 -3.2751 -5.6201 0.1928 -3.0714 -1.5301 0.2194 -5.0093 -5.4916 -3.3271 0.9187 0.8796 -3.6020 -3.8628 -2.2534 1.9819 -5.6335 -2.9164 -2.5100 0.8719 -3.2142 -8.1919 -3.4700 -2.2654 -7.0860 -12.7340 -6.7622
-4.0069 -2.8773 -3.8738 -1.5824 -2.9752 -4.1978 -0.0658 -2.6438 -2.3256 0.6457 -1.4343 -5.8808 -3.5150 0.4773 1.7050 -4.3070 -5.4729 -2.8722 1.3921 -4.2189 -7.1588 -4.5813 -1.7946 -3.6123 -8.5373 -6.8350 -4.9819 -7.9833 -12.4118 -8.6562
-0.6235 -3.2049 -3.9094 -1.8677 -3.1189 -3.3275 -0.3010 -3.7194 -2.6471 1.8852 1.5791 -4.2056 -4.1609 -0.0946 2.7463 -2.0496 -5.8772 -2.4587 1.9726 -2.6682 -7.9751 -3.6480 -0.8926 -1.8083 -5.5121 -7.6293 -3.9732 -5.5929 -7.2906 -6.5002
1.5810 -2.7407 -2.6840 -0.9960 -2.8150 -2.2646 1.0190 -4.4500 -1.8279 3.2639 3.3993 -2.6385 -4.6059 0.1198 4.4461 2.6658 -5.2800 -1.8455 3.3413 -0.6611 -6.5922 -1.7487 1.9749 0.2583 -1.9240 -7.0469 -1.4078 -2.9883 -3.5531 -4.0318
-2.5732 1.7797 1.3457 0.4309 -2.8362 -0.0261 2.4110 -1.4998 -0.5953 3.3071 3.5890 -1.5576 -2.5348 1.2365 6.1824 6.8969 -3.0209 -1.1239 4.4373 1.6784 -4.5026 -0.2284 3.2527 1.6324 1.5969 -4.6533 0.1378 -2.3424 -3.8187 -2.5853
-4.4323 3.6066 3.8996 0.6347 -3.6158 2.4756 2.4459 3.2824 -0.0954 2.2556 2.5346 -0.1355 0.9905 2.1549 6.6812 8.3782 0.2372 -0.0458 5.2157 4.1383 -1.9006 1.1227 3.2605 3.4319 5.1458 -0.7481 1.4414 -1.1427 -2.6087 -0.2012
0.0525 0.6190 4.1246 0.7945 -3.5763 4.0080 3.1865 5.9091 -0.0299 2.3347 3.0008 1.2754 2.8122 2.0957 7.0441 6.7091 2.3397 0.8402 6.1496 7.6059 0.6325 2.1516 3.9334 5.9967 7.4323 2.2225 4.1564 2.7596 2.6259 3.3433
2.2253 0.0949 4.3889 1.8284 -2.0185 4.0120 5.6535 5.3531 0.2473 3.7212 5.1651 2.6076 2.2318 1.4737 7.9098 4.5924 2.9286 0.8198 6.5849 10.4010 2.7270 2.6455 4.6444 7.6396 8.2434 3.3694 7.6204 7.1023 7.3585 6.5097
0.3555 3.1318 5.5848 3.0891 -0.0676 3.9978 7.5440 3.8202 0.5425 4.2394 5.2186 4.4958 0.9704 1.0812 7.1686 6.9116 3.4723 0.3785 5.6958 9.5649 5.1158 3.2319 4.6245 7.6320 9.3397 4.3765 10.2381 10.0198 10.5925 8.0549
1.8853 4.1335 7.8829 4.4753 1.3943 6.1624 7.1770 4.0306 0.9158 3.3529 3.1632 7.0927 0.8383 1.4484 4.8548 13.3585 4.9439 0.8480 4.5797 7.1467 8.3548 4.5690 5.1444 7.3994 11.2803 6.3540 11.3988 11.7030 13.9986 7.1710
5.6683 3.4604 9.8394 5.1197 2.0802 8.3973 5.6702 6.2447 1.4632 2.3804 3.2925 9.8049 2.2195 2.2035 3.7979 16.7179 7.1809 2.1017 4.4956 6.5071 11.8592 6.1771 6.1858 7.3524 11.8610 9.0978 11.9430 11.0220 12.9948 5.4597
6.0595 4.1256 9.1194 4.0233 2.0185 7.2637 5.0149 8.3354 1.5114 2.0739 5.5230 11.0189 3.6493 2.1739 4.4734 14.3560 9.0720 2.5880 4.8334 6.6590 14.8784 7.1906 6.1645 6.8849 10.4781 12.9225 13.8367 8.5371 6.2116 7.2820
6.1885 4.2221 7.7472 3.0939 1.7432 5.2604 5.5266 8.9257 1.2748 2.3590 6.6649 9.8164 3.8780 1.2686 4.9900 12.5423 9.6852 2.1549 4.8318 6.6682 17.3616 7.6319 5.3321 6.6031 10.1459 17.2944 16.5458 7.4216 1.6833 12.4332
8.8418 2.8577 9.0895 4.0135 1.4295 5.8268 5.8367 8.6716 1.8095 2.5425 7.6927 8.2364 3.5866 0.5875 4.1002 13.6929 9.4459 1.6533 4.0232 6.8002 18.7044 7.2391 4.3032 5.8297 10.6900 18.6495 15.7768 6.5562 0.7661 13.5321
9.0559 3.4679 10.2660 4.4936 0.7891 6.3621 4.8511 8.2557 2.2858 1.9335 9.8277 8.7844 3.4814 0.4226 2.2237 12.3227 9.0145 0.8964 1.9422 5.4628 17.9057 5.3529 2.5905 3.1265 8.1843 15.1941 11.1567 4.0686 -1.8326 8.3224
5.0902 6.7771 7.9123 2.8637 0.1980 5.0531 2.9710 7.6342 1.2140 1.2728 9.7628 10.1564 2.9667 0.3554 1.5809 7.3846 7.9665 -0.0192 0.1318 3.5794 16.0619 3.3240 1.4705 1.3597 4.6322 11.1689 8.5289 4.4962 -1.7629 4.5451
1.9108 8.5566 6.3699 1.9942 0.3782 5.2462 2.1668 6.8662 -0.1447 1.5027 6.1380 8.7221 1.5319 0.0784 3.1334 3.9010 5.7099 -0.5469 0.0181 4.2591 15.2300 2.8497 2.1099 3.0390 5.2024 10.6267 9.6652 8.6526 3.9771 5.3736
3.3610 6.4094 8.9309 3.9971 1.2466 7.4084 3.4074 5.2052 0.1858 1.7795 2.2054 5.2070 -0.6973 -0.8646 3.7784 3.5198 3.1959 -1.5150 -0.6031 4.7287 15.6683 2.8572 2.1568 3.7354 6.9442 12.8573 10.7282 9.6253 5.4798 5.5148
7.8733 4.3061 10.0363 5.6695 1.7359 7.5624 4.1896 2.4543 1.1032 1.1773 -0.3660 5.1891 -2.8141 -2.0443 1.1787 5.1476 2.4273 -3.2799 -2.9453 0.8036 16.9087 2.2872 0.3995 0.3334 4.7959 16.4041 11.7436 8.1137 1.1964 4.7682
9.0764 6.8916 6.3481 3.8852 0.8539 5.1541 2.8913 2.0394 0.4995 0.4342 -1.5948 9.4700 -3.0873 -2.1034 -1.8438 7.8952 3.2588 -4.3904 -4.2537 -4.0779 18.0604 1.8112 -0.8190 -2.8711 1.2190 19.3420 14.3088 10.2150 1.3366 6.5636
4.7733 11.1962 3.5700 1.3057 -0.5622 3.5472 1.9610 5.4888 -0.7710 0.1953 -0.9618 11.6351 -1.6436 -1.4007 -2.2962 8.7532 3.1272 -4.5464 -3.7393 -5.3876 17.1754 0.8863 -1.1945 -3.5986 -1.0548 18.3178 14.7704 11.1580 2.9531 7.2837
2.9084 10.7799 4.7126 1.4984 -0.5884 3.6279 2.4825 6.9387 -0.3846 0.0177 0.0839 9.2615 -1.2003 -1.4361 -1.3508 7.1631 1.5920 -4.7487 -3.3405 -4.5635 14.5991 -0.8591 -2.2686 -4.6067 -3.1226 14.5883 11.7357 6.1962 -2.0200 4.4912
7.5572 6.3143 5.2724 2.9128 0.8209 2.7832 2.9742 3.2923 1.3190 0.0145 1.4499 6.8791 -2.4902 -1.6792 -0.9516 7.6540 0.7130 -4.7703 -2.8322 -4.1031 12.9101 -1.4890 -2.8288 -5.9037 -4.2065 13.0037 10.2206 3.9722 -5.4559 3.1686
10.8898 3.2387 3.7769 3.0250 2.1765 0.3723 3.4926 1.2161 1.7498 0.6652 5.1174 6.2157 -3.0855 -1.0476 -1.4204 9.7502 0.5405 -4.3386 -1.9024 -4.7490 11.3643 -1.0598 -2.3607 -6.2955 -4.7100 12.2573 10.4882 7.5635 -2.4025 3.0874
8.8278 2.9084 3.2949 2.6851 2.9258 -0.0242 2.9187 4.1563 0.2979 0.9828 6.1455 5.2200 -2.0506 -0.3798 -2.8541 6.9856 -0.0948 -4.1843 -2.2851 -6.7258 7.7018 -1.9739 -3.2209 -7.5010 -7.8464 8.4181 7.1616 6.6166 -3.5667 -1.2556
6.4582 3.7033 2.9865 2.4905 3.1046 2.7450 -0.9880 5.6754 -0.7139 0.0683 -0.6250 4.0315 -1.1480 -0.4328 -4.4192 -0.6368 -0.8297 -4.2514 -3.6796 -8.4991 3.4365 -3.6730 -4.6721 -9.0812 -11.6968 4.3039 1.6577 0.4301 -9.3689 -6.8045
4.7720 4.0912 -0.1273 1.3969 2.4291 3.0603 -4.5725 2.0505 -0.0796 -0.6169 -7.4525 2.2485 -1.7588 -0.8195 -4.0748 -6.7979 -2.1896 -4.2718 -4.0527 -8.6628 -0.0919 -4.4634 -3.9694 -8.8554 -12.7392 1.8985 -0.6879 -1.1266 -8.9014 -7.8293
0.8675 1.4597 -4.0290 0.2309 1.2362 -2.4329 -2.9439 -2.3819 0.3562 0.1126 -7.3315 -2.2344 -3.5953 -1.4743 -2.4647 -8.0214 -4.9681 -4.9388 -3.8642 -9.1049 -4.0519 -5.3921 -3.4373 -9.0947 -13.9854 -3.2653 -1.8739 -0.2828 -6.8100 -8.6702
-1.8190 -3.7535 -4.3500 0.6276 0.5873 -7.2068 0.2065 -3.5745 -0.5892 0.6490 -5.9556 -6.4029 -5.0750 -2.2011 -3.1357 -4.0323 -6.5593 -5.9544 -4.6838 -11.3527 -6.6459 -6.6501 -6.1382 -11.9722 -16.8034 -9.9762 -5.0723 -5.0769 -13.3373 -13.7853
0.1965 -5.6134 -1.7149 1.2537 0.7706 -5.2040 -0.6727 -1.6588 -1.2370 -0.2811 -6.6208 -5.0965 -4.4693 -2.3934 -6.2281 1.6869 -4.9211 -5.8568 -5.8440 -12.7677 -5.1066 -6.2768 -8.6490 -13.6072 -16.0530 -10.7064 -6.6141 -9.5885 -19.5012 -17.0300
1.4236 -1.6488 -0.7695 0.0725 0.9973 -1.2289 -3.3989 0.7363 -0.4635 -1.1841 -5.1192 -0.5438 -2.3150 -2.4540 -7.4626 2.2890 -2.3880 -4.6917 -5.5729 -10.6412 -1.6702 -4.3390 -7.2226 -10.8545 -11.2244 -6.4070 -4.1349 -6.0894 -14.5067 -13.7783
-1.5406 2.8647 -1.7795 -1.0942 1.2458 -1.0180 -3.5173 0.7753 0.1880 -0.7142 -2.5001 2.4238 -1.2514 -3.0330 -5.2563 -0.7737 -0.5717 -3.7211 -3.7561 -6.7900 1.1121 -2.3636 -4.5152 -6.8853 -7.6892 -3.5542 -1.2537 -1.1559 -7.1727 -9.2520
-1.6479 3.3421 0.0597 0.8198 2.6358 -1.1666 -0.6242 -0.4438 -0.3377 0.2280 -2.9853 4.7388 -2.0104 -3.4257 -2.9391 2.2992 1.6137 -3.0823 -2.0087 -4.4531 4.6977 -0.3647 -3.9807 -5.0546 -5.7346 -1.2058 0.0368 -1.0431 -6.8817 -6.6085
4.2680 0.7033 4.8913 4.1080 4.7534 1.4765 3.5650 1.4057 -0.4815 0.6021 -3.8719 7.6474 -2.0019 -2.8308 -2.4535 9.9913 3.7433 -2.2059 -1.2355 -3.2907 9.3683 1.7634 -4.4900 -4.3026 -2.5487 3.9175 2.1561 -0.6551 -8.2622 -3.0085
8.9034 -2.0650 6.9780 4.3895 5.3722 3.1299 6.0977 6.2775 0.7404 0.7431 -0.7406 8.5975 0.2661 -1.6646 -1.2537 10.4924 4.7064 -1.1734 -0.4236 -0.7735 12.7675 3.3725 -3.5706 -2.5156 0.3480 9.4567 6.9272 2.9655 -6.5015 0.8863
9.5620 -2.4760 5.0221 1.8451 4.0278 2.7223 4.2537 8.3271 1.2459 1.1585 3.7261 7.7385 2.0093 -0.6493 2.2828 5.6386 5.2684 -0.2412 1.2981 3.4763 14.2657 4.4591 -1.0488 0.7625 2.4778 12.7290 12.2982 5.9258 -3.8062 3.0556
10.5561 -0.0643 3.3448 0.3396 2.3989 3.9355 0.1808 4.8926 -0.1333 1.6345 4.2978 8.4058 0.7799 -0.1018 5.0909 6.7973 5.8044 0.5283 3.0648 7.1264 14.8553 5.0722 1.1915 4.1969 6.0778 13.7926 14.2256 7.2395 -0.8000 5.2879
10.1972 3.0600 3.3185 0.7197 1.2261 5.4717 -1.3203 1.2302 -0.6718 2.0583 2.2781 10.1712 -0.6568 0.2548 4.9104 11.6996 5.8015 1.0313 4.1078 8.0413 14.9342 4.9637 1.6049 5.4460 8.3758 12.7932 12.2686 8.1894 1.8826 6.8827
5.1039 5.5931 3.6090 1.1886 0.5639 3.9629 0.1712 2.3700 0.6055 2.7935 2.8970 10.1525 0.5978 1.3210 4.4529 13.5370 5.8572 1.5820 5.1551 6.8941 14.7560 4.8514 1.3491 4.4601 6.5383 10.9351 10.3124 7.6317 1.9177 5.5948
1.1113 7.8219 5.0249 1.7201 1.1587 2.8985 1.2353 5.6614 0.8264 3.2255 5.4018 9.3780 2.3523 2.9891 5.1943 16.1758 6.6118 2.6384 6.1832 5.8571 14.6604 5.4154 2.2896 3.7483 5.1872 10.1609 9.9033 5.6137 0.6284 4.2255
3.6411 8.0565 6.8119 2.5320 2.2670 5.1062 0.0819 6.1589 1.1976 2.0034 4.7214 10.2402 3.0893 3.5195 4.4067 19.0352 7.6975 3.8370 5.6449 5.4062 14.7396 6.1168 3.6796 3.9107 6.7609 10.5454 9.4956 4.6359 0.8183 5.0256
7.7196 4.6349 5.3535 2.1687 1.4853 5.4448 -2.0247 3.7673 4.2570 0.1503 1.8646 10.6788 4.3150 2.5834 2.3556 15.1596 8.6237 4.7152 4.0950 5.2692 14.8216 6.7903 4.6374 3.9006 7.0089 11.1701 9.7775 6.0079 2.5323 5.7860
7.6908 0.2727 1.7545 0.9172 -0.9451 1.5101 -2.9935 1.2810 3.4680 0.1717 1.1375 8.2073 3.9985 2.2872 2.0660 9.7188 8.5969 5.3649 3.8897 5.4569 14.0445 7.6315 5.8724 3.7797 4.4710 10.5460 11.0669 8.2705 4.0246 4.9727
5.0918 -1.6617 0.7588 1.0044 -1.9283 -1.1667 -2.2121 0.4757 -4.8432 1.5931 -0.0044 5.5421 0.0654 3.2750 2.1055 9.1658 6.9756 5.3314 4.1556 4.0047 11.7840 7.6135 6.0709 2.8035 0.8606 7.2596 10.0065 8.1200 2.2979 2.2331
2.6033 -1.8523 1.0123 1.7778 -0.7740 -0.9858 -0.8454 1.1817 -9.4003 2.3844 -4.3426 4.9154 -2.6151 3.4980 0.8039 6.4210 4.5119 4.0587 2.7278 -0.0533 8.7949 5.9797 3.6448 0.0076 -3.4920 3.3716 6.1721 4.2566 -3.2366 -2.1868
0.7806 -2.5004 -2.2605 0.5796 0.0456 -3.0729 -0.1471 1.2930 -4.2903 2.7867 -5.7737 3.2437 -1.0576 1.9403 0.8767 -0.3946 2.1376 2.4126 1.2141 -3.0024 5.5735 3.6253 1.4214 -2.6765 -7.1802 1.6003 3.7350 0.2362 -7.1032 -5.5899
0.6782 -3.8463 -7.4209 -1.7753 -0.3809 -7.5841 -0.4208 -0.4112 0.2906 3.2347 -1.8502 -0.3551 0.1193 -0.0017 1.9013 -2.1562 -0.0257 1.3479 1.2061 -3.0375 1.9953 1.3538 1.6488 -3.5885 -9.0800 0.1112 3.2600 -0.5058 -5.2331 -6.5209
2.1160 -4.7217 -8.9060 -1.9707 -0.4357 -8.8254 -0.8030 -1.9506 -0.4375 2.9021 -0.3897 -1.7920 -1.2075 -0.9282 0.0218 1.3514 -1.6799 0.3757 0.6127 -3.9061 -0.7932 -0.9291 1.1971 -4.2620 -11.0094 -3.1185 1.0923 -0.7459 -2.7684 -7.8352
2.8472 -4.6841 -5.6805 0.4668 0.6486 -5.9930 0.1048 -2.1912 -0.6860 2.2296 -2.8318 -0.9634 -2.3922 -0.8237 -3.0235 2.8784 -2.6578 -0.8478 -1.3594 -6.3903 -1.7304 -3.0426 -1.7423 -5.5884 -13.0101 -5.8364 -3.1904 -4.6672 -6.1138 -11.1484
2.5727 -3.9647 -2.1740 2.4248 1.8243 -3.4464 1.4276 -2.5434 0.1423 2.0937 -3.2973 -1.1445 -2.9280 -0.3542 -2.6037 1.8792 -3.0281 -1.4587 -2.0961 -6.1649 -1.1636 -3.9860 -3.5559 -5.8968 -12.4187 -5.1595 -5.5099 -8.8122 -11.3401 -12.7126
2.5755 -1.9546 -2.4606 1.3799 2.2707 -2.7973 0.6299 -1.9802 -0.7269 1.8914 -3.1134 -0.5124 -2.8167 0.0014 0.1172 1.8543 -2.1491 -1.0274 -0.7789 -3.3762 0.8941 -3.0360 -2.3790 -4.7693 -9.5154 -1.2702 -3.4984 -7.1932 -11.0306 -9.7060
2.8264 0.3958 -4.6094 -0.8685 2.3814 -3.2178 -1.2656 0.9718 -0.9580 1.4539 -3.8155 2.4229 -0.8862 0.1747 0.6674 4.5363 -0.0039 -0.2791 0.0575 -3.1930 3.7929 -1.1861 -1.5729 -4.5381 -7.5384 2.2782 -0.3557 -3.3028 -8.3063 -5.9630
2.9886 -0.1073 -3.5334 -0.4653 2.5620 -4.3582 -1.0328 2.7192 0.9404 1.4866 -1.0425 3.1910 1.2578 0.5622 -1.3560 8.3118 2.1549 0.3753 -0.7831 -5.3611 5.4631 0.1052 -2.8066 -5.8806 -7.4088 2.5061 0.4175 -3.9720 -9.6508 -5.7312
2.7662 -2.1400 0.6925 2.3823 2.4602 -4.2405 0.5774 0.9090 2.0593 1.6737 2.6398 1.4857 1.4012 1.5068 -2.6299 8.8024 3.6197 1.1214 -1.4192 -4.8053 5.5372 0.8500 -3.3530 -6.0512 -7.0678 1.4191 0.2846 -6.6716 -11.4532 -7.2145
1.8734 -1.1732 2.8909 3.5543 1.7157 -1.7108 0.6606 -0.7071 1.3311 1.3357 1.1465 2.8280 0.6780 2.1028 -1.9979 6.0466 4.0921 1.4725 -0.6895 -2.2184 5.0383 1.0690 -2.5421 -4.2981 -6.0155 1.2164 0.7474 -6.8273 -10.0128 -7.4802
1.4890 0.8524 0.5557 1.3969 0.3072 -0.2202 -0.8448 -0.1457 0.7049 0.6826 -2.4761 6.7961 0.5847 1.1224 -1.6042 4.7975 3.3883 0.8231 0.1103 -2.1080 4.1347 0.1966 -2.9787 -3.4749 -6.2538 -0.0103 0.4835 -6.8615 -10.8227 -7.2203
2.2066 -0.1288 -3.3176 -1.3816 -1.0820 -1.5985 -2.2772 0.1816 0.6582 0.1902 -4.3423 8.1323 0.5545 -0.5582 -2.3370 5.9383 2.4262 -0.0920 0.0992 -3.1682 3.4954 -0.8510 -4.3988 -4.0324 -7.4834 -1.7641 0.5545 -7.7095 -14.4190 -7.2709
2.5361 -1.4943 -4.4676 -1.7612 -0.7044 -2.3048 -2.3793 -0.2906 0.1839 0.3040 -5.7445 5.8705 -0.1482 -1.0059 -2.6235 7.6458 1.6283 -0.3729 0.1492 -1.9113 3.4293 -1.0680 -4.2285 -3.4630 -6.9820 -0.6978 2.6874 -5.9895 -12.8653 -6.6956
2.5583 -0.5891 -1.9413 0.4818 1.7830 -0.6774 -0.5999 -0.5446 -0.4726 1.4082 -4.8253 2.5085 -1.4761 -0.2326 -1.2142 9.1441 0.1178 -0.6950 0.8824 0.0461 2.1103 -1.7009 -3.2623 -1.7975 -5.2549 1.1025 3.8687 -3.3187 -6.8752 -5.7488
3.8719 0.2233 0.8225 2.7189 3.5603 0.8317 1.5764 -1.6415 -0.4723 2.9858 -0.1778 0.3028 -3.0666 0.1695 2.0343 7.5955 -1.9279 -1.9258 1.9747 1.2185 -1.0227 -3.6957 -3.5385 -0.7480 -4.7497 -0.4923 1.1442 -4.4639 -5.2552 -5.5220
5.3277 0.0871 -0.1768 2.0679 2.6183 1.2999 1.7753 -3.6428 -0.1957 3.8067 2.3387 -0.0424 -4.1136 -0.3804 5.6628 2.6780 -3.6104 -3.1444 3.2226 3.5415 -4.0229 -5.7637 -3.6925 0.0210 -4.3886 -3.5532 -3.1768 -8.0222 -8.0837 -5.1754
5.0223 0.4419 -3.4508 -0.6113 1.0360 1.6588 0.5864 -3.3598 -0.3784 3.5198 0.5426 0.0048 -3.6917 -0.6719 6.5559 1.5547 -4.9260 -2.8558 4.0418 5.5700 -5.8817 -6.5700 -2.3528 0.7576 -2.5718 -4.8883 -5.6693 -9.1097 -8.5222 -4.0825
4.3094 0.8865 -3.6859 -1.4608 1.2630 1.7451 0.1745 -0.3806 -0.6531 2.8679 0.4097 -0.2255 -2.1522 0.4014 4.0179 7.2634 -5.3454 -1.2000 3.0971 3.4197 -6.4934 -5.8850 -1.3545 0.1504 -1.3559 -5.2191 -6.1517 -7.4478 -6.2296 -4.0970
4.5401 1.1725 -0.8214 0.3445 2.4197 1.2288 -0.2100 0.4156 -0.2458 2.2855 2.4810 0.4700 -1.1247 1.9156 1.0443 12.3094 -3.9826 0.4418 0.6851 -0.9663 -5.3885 -4.0459 -1.6328 -1.5225 -2.1368 -5.0633 -6.3200 -6.0719 -5.3339 -5.5817
3.7636 2.1120 -0.5214 1.3831 2.6694 -0.0226 -1.8688 -2.5182 0.5897 1.7749 1.1511 1.4099 -1.0633 2.1829 -0.4783 11.5126 -1.8345 1.2030 -0.6570 -2.5300 -3.5197 -2.0557 -1.4521 -2.3976 -3.1912 -3.6462 -6.8365 -5.6492 -5.6916 -5.7364
0.3802 2.3903 -4.5483 -0.1467 1.9383 -3.0571 -2.5333 -4.1664 0.8052 1.6323 -2.4746 0.5276 -0.7250 1.3157 -1.0379 7.5881 -0.6966 1.1388 -0.0537 -1.6999 -2.7764 -1.1069 -0.4498 -2.6518 -4.3788 -2.3419 -7.2590 -5.4799 -6.1731 -4.3750
-3.5107 0.0072 -8.5874 -2.0791 1.1955 -7.5874 -0.6059 -2.9037 0.1523 1.7891 -3.3793 -2.0623 -0.2316 0.8035 -1.0567 3.5147 -1.1340 0.5954 0.4161 -2.4023 -3.5557 -1.5124 -0.3259 -3.9347 -7.3418 -3.3651 -7.5929 -6.5539 -8.8702 -5.2753
-5.0003 -3.4367 -10.1973 -2.8720 1.5051 -10.6327 0.7047 -3.2922 -0.3913 1.5358 -2.6727 -4.7172 -1.1888 1.4107 -1.1608 1.2066 -2.8233 -0.0090 -0.0662 -4.5696 -5.2442 -2.6174 -1.2916 -5.7494 -10.3992 -6.0385 -7.8235 -8.9218 -13.2753 -8.8932
-4.5276 -4.2559 -11.0121 -3.5942 2.8373 -10.2903 -0.9034 -6.1627 -0.1349 0.8127 -3.1871 -6.1921 -3.1100 2.4508 -1.8927 1.7780 -5.0569 -0.4190 0.0568 -5.3862 -7.4374 -3.9189 -1.9304 -6.4476 -10.6930 -8.3160 -8.2142 -10.9721 -15.6180 -11.3141
-4.2937 -2.6095 -10.9333 -3.9948 3.2651 -7.6850 -2.5841 -7.6867 0.4684 0.3356 -4.4641 -6.8298 -4.2390 2.3557 -2.3513 1.8969 -7.1312 -1.0759 0.9421 -4.8570 -9.8633 -5.8017 -2.1224 -6.5342 -9.9890 -10.6883 -10.5021 -13.3137 -16.3505 -11.9549
-4.0275 -2.4964 -8.5986 -2.4928 1.9725 -4.5250 -2.6837 -7.7334 0.8008 0.2648 -7.0012 -8.3260 -4.7436 0.7071 -2.0794 -1.0291 -8.4965 -2.1491 1.2360 -4.2201 -11.9417 -7.8280 -2.5615 -6.8641 -10.8478 -13.9347 -14.1147 -16.3433 -17.9939 -13.4408
-2.7135 -4.7071 -6.5228 -0.7654 1.1104 -2.5851 -3.6841 -8.1208 0.8458 0.2464 -9.8607 -10.2224 -4.8757 -0.3339 -2.0344 -2.5547 -8.2951 -2.3456 1.0136 -3.3608 -12.6109 -7.9540 -2.4774 -6.2390 -11.2058 -15.7873 -14.9260 -16.7676 -18.3262 -15.1836
-1.9007 -6.1381 -7.1332 -1.1434 1.9190 -3.7621 -5.0760 -7.3850 1.0054 0.5277 -7.9577 -9.9056 -3.4923 1.1196 -1.9615 1.2774 -6.1888 -0.7406 1.2719 -2.9842 -11.1558 -5.5546 -1.2111 -4.1256 -9.1378 -14.5485 -12.1470 -13.3910 -14.6191 -14.7070
-2.0673 -5.9354 -7.5691 -1.6727 2.5764 -6.4139 -3.7249 -4.5898 1.5921 1.3836 -2.5778 -6.6340 -0.6319 3.6285 -0.5659 6.4721 -2.6680 1.7540 2.4684 -3.0590 -7.1868 -1.8647 0.2152 -1.5413 -6.2658 -10.3821 -8.1601 -8.7747 -8.3898 -11.0059
-1.0312 -5.0674 -5.9745 -1.1262 1.4800 -6.4313 -2.1960 -1.2246 2.0257 1.9163 -1.3385 -1.2359 2.4352 4.6132 1.5531 6.9673 1.8930 4.1409 4.3987 -1.0925 -0.4826 2.6342 1.3891 1.2552 -3.7616 -3.0388 -2.4575 -3.3566 -2.0879 -4.9753
0.3784 -3.8210 -5.6464 -2.0373 -0.4673 -5.1244 -3.9114 1.6178 1.3825 1.4181 -3.2567 4.4735 4.7799 3.7635 2.6450 3.4162 6.2965 5.8845 5.5220 2.3589 6.7080 6.9140 2.8651 3.4751 -2.0272 4.2250 4.0932 2.2637 2.2659 -1.0328
-0.2617 -3.7695 -6.8047 -3.4096 -1.2301 -6.5232 -4.6141 2.7903 0.4304 0.8891 -2.7434 7.1653 5.5003 2.7214 2.3283 2.6234 8.8238 6.2334 4.4930 3.6563 10.8224 8.9410 3.8924 3.6035 -1.5474 6.1333 7.1827 4.7875 3.3312 -1.8675
-0.4751 -4.8724 -4.2554 -1.2914 -0.0276 -7.2365 -1.2918 2.2620 0.7391 1.1766 -1.7177 6.7868 4.7527 2.6050 1.5696 7.7257 9.7412 5.4726 2.9416 3.4755 12.1096 9.2319 3.3710 2.9356 -0.1373 5.1214 7.5173 4.9962 2.9962 -1.8221
1.9171 -2.8759 1.9437 2.1770 1.6960 -2.9781 1.1179 2.3006 1.5695 1.6801 -0.9367 7.2640 3.9715 2.8629 1.6698 13.2476 10.0263 4.8120 3.1898 4.9369 13.2160 9.5820 2.1595 3.7581 4.1653 6.9456 8.9571 6.6823 3.9352 3.7651
3.2345 3.0083 5.2461 2.4140 2.0803 1.3467 0.3840 2.8908 1.2315 2.1503 3.2719 8.9942 3.3835 2.5461 2.9760 14.2621 9.4950 4.4946 4.5803 7.0439 14.3673 9.5951 2.1121 5.1102 8.6047 10.3212 10.5381 8.7967 5.8199 10.1722
1.7527 6.9497 4.2394 1.1737 1.1600 1.5293 -0.0089 2.1927 0.5157 2.8639 6.3311 8.6754 2.6799 1.8144 4.4640 12.3525 8.7090 4.4484 5.4678 7.7648 14.9857 9.0945 3.7265 5.3774 9.9965 12.5377 11.2712 9.0007 7.0415 12.3014
0.9726 5.2556 2.5695 1.0731 0.2008 0.7839 -0.1807 1.4560 0.7783 3.1729 2.0485 6.3081 2.7325 1.5819 5.7477 9.4545 8.7247 5.1570 6.2519 8.1115 15.7680 9.4940 5.7967 5.4717 9.0117 14.3631 13.2991 8.9198 6.7488 10.7329
2.0181 0.8905 -0.0925 -0.2680 -0.3538 -0.0235 -2.5154 1.6741 0.9685 2.5761 -3.1312 5.0711 3.3043 2.2052 6.9655 7.2866 9.0281 6.0907 7.6458 8.6652 16.5762 10.6228 6.9866 6.3480 7.7738 14.6655 15.4666 9.4313 5.3303 7.7783
3.0416 -1.3543 -3.7870 -3.0035 -0.7299 -2.0781 -4.7209 1.0904 0.0646 1.9116 -2.2893 6.1935 2.8553 2.9152 6.9096 9.5021 9.0011 5.9897 8.7150 8.4361 16.6557 11.0160 7.2063 7.3665 7.6493 12.8750 14.8944 8.7529 4.5357 6.2800
4.1894 -0.2254 -3.4225 -2.7812 -0.5045 -1.5849 -3.3897 0.1867 -0.6575 2.0868 0.5390 8.0298 1.7225 2.6401 5.5839 13.9850 8.9252 5.1533 8.8527 8.5098 16.2923 10.7231 7.4503 8.4833 9.2597 12.3023 13.0127 7.4002 5.7953 8.1899
5.8873 1.3807 0.9942 0.2566 0.6865 2.4977 0.3640 0.8296 -0.2263 2.9619 1.8111 8.6745 1.2474 1.4272 5.4478 14.0201 8.3971 4.6253 8.8538 10.4036 15.4077 10.2463 8.3022 10.3808 11.9586 12.7182 12.2123 8.3285 9.2889 11.5769
6.6891 1.4780 2.4098 1.2307 1.9442 4.5496 2.4075 1.8413 0.2533 3.4744 2.9128 7.7403 1.0684 0.4322 6.4874 11.0364 6.7475 3.9392 8.4790 11.7683 13.2112 8.8559 8.7725 11.7024 13.4186 10.5917 11.4701 11.1209 13.1762 12.8937
6.2481 1.8130 0.0231 -0.2895 2.4594 3.2368 0.6533 1.5441 -0.2197 2.7516 3.0842 5.8264 0.2202 0.2229 5.7710 10.6102 4.5841 2.1995 6.4513 9.8154 10.2798 6.2430 7.3615 9.9578 11.6530 7.6632 9.0210 11.0534 12.8123 10.9707
5.8454 3.2946 -0.8696 -0.7916 2.5911 2.4980 -2.0446 -0.1059 -1.0361 1.6404 1.6760 3.5466 -1.2164 0.0655 3.3039 10.6228 3.1036 0.1219 3.7399 6.7113 8.2990 3.6929 4.3544 6.0971 8.4517 7.9415 6.1466 6.9664 7.2483 8.7360
5.5211 4.5555 -0.4768 -0.0907 2.5343 2.5636 -1.9741 -2.7060 -1.2660 1.6655 0.8988 1.7575 -2.4718 -0.6869 1.8917 8.5579 2.4959 -0.9011 2.5946 6.0484 7.6610 2.2346 2.0552 4.0513 7.6756 10.4503 5.6562 4.6852 4.1630 10.1369
4.2866 5.2336 -1.8038 -0.1795 2.1857 1.3693 0.1349 -4.2063 -0.9175 2.5514 1.9229 1.0994 -2.7860 -1.5737 1.9617 8.6976 1.6629 -0.8444 2.4700 6.6905 6.7426 1.1763 1.8996 4.6232 8.6535 10.9672 6.1104 6.6615 7.5802 11.9965
2.4519 4.8523 -3.1003 -0.6230 1.9233 -0.3813 1.7524 -2.4962 -0.5902 3.0341 3.9976 0.9282 -2.2044 -1.8030 1.9460 11.3824 -0.0759 -0.8976 1.4942 5.3198 4.1579 -0.4853 2.2668 4.4602 6.7004 6.7970 2.7860 6.3013 8.6837 7.1997
1.4650 2.5236 -2.2559 -0.2226 1.5846 -0.9744 2.4604 0.6179 -0.5636 2.9050 4.8545 0.4302 -1.4935 -1.2321 1.6639 10.1067 -1.5286 -1.5961 0.2793 2.6033 1.2637 -2.2844 1.0308 2.1066 1.5538 0.3374 -3.3974 -0.0582 0.9327 -0.8518
1.5692 0.2033 -0.6028 0.4120 0.6595 0.0628 2.4271 2.2498 -0.6383 2.4493 2.7357 -0.3375 -0.9758 -0.3904 2.0147 3.8250 -1.6057 -2.2087 0.1635 1.8334 0.3538 -3.1254 -1.0095 0.0332 -1.7157 -2.6457 -6.7096 -6.5868 -8.8708 -2.7695
1.2486 -0.0262 0.3459 0.4036 -0.0710 1.3575 1.4522 2.0074 -0.6834 1.7319 0.1042 -1.3916 -0.7249 0.0626 3.1985 -1.0649 -1.1743 -1.9889 0.7214 3.3108 1.1536 -2.8609 -1.7519 -0.0238 -1.0355 -1.3858 -6.4435 -8.3796 -12.6522 -0.0680
0.1756 0.1196 -0.3211 -0.0118 0.1946 0.6237 0.3066 0.1092 -0.6790 1.1439 -1.2877 -1.9190 -0.9367 0.0519 3.8953 0.1559 -0.6809 -0.7652 1.4381 4.3761 2.3755 -1.5203 -0.7525 1.0846 0.8505 -0.0104 -5.1532 -6.0563 -9.1126 0.9858
0.2167 -0.7136 -2.5355 -0.3963 0.6773 -1.4296 0.3081 -2.0084 -0.4821 1.1057 -3.7828 0.3041 -0.9920 0.2436 2.5810 6.4694 0.7826 1.2135 2.3963 3.9064 4.5487 1.1901 1.2047 2.4897 2.4697 1.3472 -1.6207 -0.9227 -0.8000 2.2870
1.9340 -0.7454 -2.8983 -0.3419 0.7872 -1.3457 1.6234 -1.3908 -0.2903 1.4167 -5.2996 4.7299 -0.4011 0.9312 0.6424 12.2253 2.5590 2.7115 3.0397 3.4055 7.6464 3.9314 2.6299 3.6547 4.1864 4.3391 3.5262 3.4086 5.0488 5.3050
3.9490 0.5562 1.3151 0.8719 0.9445 1.3095 2.8393 1.2334 -0.5530 1.6704 -0.6594 6.9790 -0.1192 1.3269 0.8390 13.3085 3.1028 2.4401 3.0088 4.0778 9.5872 4.4515 1.9541 3.7308 5.1908 6.3046 4.3680 2.1341 2.7311 5.7149
6.1760 1.5911 6.6004 2.7998 1.1083 4.0104 2.6223 2.3688 -0.8808 1.7866 6.2798 5.5000 -0.4277 0.9156 2.6608 13.1136 3.2423 1.2918 3.1771 5.6079 10.1005 3.4324 0.4718 3.4945 6.2614 6.7506 0.8446 -1.7875 -1.9245 4.9068
9.1813 2.1773 8.0974 3.4936 1.1742 6.1831 1.4407 2.0652 -0.3558 1.8184 7.6223 4.0496 -0.1412 0.4539 4.1114 14.8500 4.3863 1.0735 4.2884 7.5213 11.3449 3.4216 1.0018 4.8556 9.9896 9.2810 0.0922 -1.5337 -1.4078 9.0089
11.3402 3.1325 6.5211 2.4220 1.5507 7.8825 0.4549 2.3530 0.7996 1.5533 4.7681 5.2012 0.8888 0.6029 5.0583 14.9325 5.7441 1.5719 5.4377 9.1282 13.5538 4.4054 2.5207 6.8658 14.2885 12.8673 2.7993 2.0183 1.5676 15.7423
10.6247 5.0092 5.4711 1.1948 1.8701 7.5199 -0.2791 3.7851 1.3149 0.6625 4.0248 7.1549 2.0011 0.9063 4.7842 12.5955 6.5836 1.6962 4.8962 9.0685 15.5591 5.2263 2.4333 6.6629 14.3934 15.6316 5.3450 5.2614 3.5388 18.7351
7.8834 8.0415 6.0043 0.7597 1.5840 5.4206 -0.6730 6.1360 0.7835 -0.4087 6.2013 8.0863 3.2152 0.8405 2.2760 11.5707 7.7254 1.7837 2.7529 7.2383 17.6651 6.6892 2.0995 4.6289 11.7474 20.9943 10.5765 9.7063 6.8527 19.2278
5.9357 9.4298 6.5132 0.9368 1.3669 3.9876 0.3861 7.3713 0.2016 -0.4625 7.4529 8.2055 3.9146 0.4006 0.1859 10.0500 8.7973 2.3168 1.2732 5.3052 18.5686 8.4865 3.0905 3.3823 10.5919 25.7200 17.2189 14.0166 10.3107 19.7435
6.5916 5.6079 5.8492 1.8978 1.5701 3.7267 2.5288 5.7324 0.3552 0.4609 4.5582 7.9787 3.4495 -0.3471 1.1609 6.0749 8.3938 2.7170 1.4198 4.1970 15.5211 8.0984 3.3532 2.9244 9.7160 19.9904 14.2795 11.9881 8.9711 17.0655
9.2959 0.0196 4.9807 3.2272 1.3609 3.8389 2.9059 4.2454 0.7549 0.6972 -0.9888 8.4545 3.2940 -0.8252 2.6090 5.4157 7.6149 2.9947 1.4729 3.4382 11.1306 6.2733 2.3547 1.8747 6.9170 8.4235 2.6696 5.2721 4.4015 11.4151
11.6896 -0.7560 4.8841 3.5611 0.7517 3.7190 0.4858 5.7013 0.7399 -0.0337 -3.0950 10.2947 4.5013 -0.2690 1.7868 10.2203 8.2839 3.7515 0.1807 2.5585 10.2214 6.3344 2.5483 0.6869 4.0132 4.9289 -2.3238 2.1789 1.9392 8.5223
11.6264 1.8455 4.3764 2.7790 0.8015 2.0388 -1.6936 7.3395 0.6266 -0.0108 0.5846 10.6885 5.4287 0.5452 0.7631 13.6037 8.7595 4.2224 -1.3672 1.5351 10.5811 7.3372 3.7059 0.1125 2.0356 7.8359 1.4962 3.3309 1.6968 8.8237
8.7949 2.0847 1.9331 1.6538 1.5257 -1.5019 -1.5265 6.6398 0.7777 0.9489 4.4022 6.8485 4.8448 0.1685 1.3683 12.4631 6.6151 3.3327 -1.5327 0.8637 7.6811 6.0927 3.3326 -0.0139 0.0782 6.7159 2.0489 3.5876 2.0448 8.0948
4.7997 0.0973 -1.2838 0.4532 2.1475 -4.2683 -0.7508 4.5463 0.6765 1.1451 3.3258 1.4763 3.0836 -1.1121 1.5258 10.4621 2.6593 1.5067 -0.6044 0.6739 2.8989 3.0606 1.4158 -0.1808 -1.7991 1.9192 -2.8181 1.7085 2.6453 4.7989
2.9816 -1.9425 -2.2432 0.3888 2.7922 -4.0829 -0.3117 1.4557 0.1078 0.5359 -0.3696 -1.1611 0.1277 -2.0173 -0.0262 7.5439 -0.9347 -0.5920 -0.7439 -0.4810 -1.0076 -0.1069 -0.9214 -1.8876 -4.7284 -2.3276 -6.3334 -2.4592 -0.7886 -1.6208
5.2204 -5.0195 -0.5295 2.1504 3.6357 -2.5511 1.0843 -1.6882 -0.2035 0.4980 -1.6355 -0.9001 -2.8342 -2.1003 -1.0121 1.4305 -2.9348 -2.5440 -2.4179 -2.7904 -3.8400 -3.0479 -3.6197 -5.2908 -9.3996 -6.4731 -8.2721 -8.7446 -10.1805 -9.6197
7.3495 -7.0283 1.0816 3.2622 3.6910 -1.9135 2.7201 -1.4318 0.0015 0.9266 0.6531 0.2130 -2.9456 -1.6740 -0.0995 -2.4021 -2.9400 -3.2423 -3.0179 -3.1501 -4.8267 -4.3835 -5.4506 -6.5323 -11.3344 -8.8877 -10.8127 -11.8343 -16.2262 -12.4166
4.6813 -4.1561 1.1412 2.2096 2.3233 -1.7286 2.6764 2.3298 0.2037 1.1307 2.7823 0.7650 -0.2277 -1.4017 1.0052 2.1892 -1.6550 -2.2593 -1.2234 -0.6897 -3.8889 -3.1778 -4.5320 -3.4597 -7.5102 -7.4759 -11.8709 -8.6553 -12.3531 -7.5922
0.9820 -0.7197 -0.0033 0.9234 0.3189 -1.4371 1.4004 4.2158 0.3628 1.4607 1.1754 0.4457 1.9948 -1.6338 1.6019 8.3974 -0.1723 -0.6931 1.0114 1.1469 -3.1595 -1.0455 -1.7657 0.0814 -2.6393 -5.5576 -11.0900 -5.1613 -6.5908 -2.3949
1.3969 -1.9597 -1.8388 0.2638 -1.4030 -1.5730 -0.0670 1.8659 0.6486 1.7043 -2.4783 0.7434 2.2687 -1.5867 2.5716 7.2345 1.3425 0.7206 2.1801 1.5445 -2.5041 0.8456 0.4155 0.9796 -0.7888 -5.0822 -10.1757 -5.5856 -6.3419 -1.5240
2.4486 -3.0760 -2.0812 -0.4960 -2.3913 -1.3182 -1.7940 -0.1096 0.4260 0.8906 -3.7689 2.6009 1.9278 -0.6492 3.0387 4.3406 2.6222 2.0061 2.7112 2.6514 -0.1076 2.7778 1.4663 0.9895 -0.1415 -3.7437 -7.7051 -5.9833 -7.5027 -1.7761
0.8375 -0.7166 0.5180 -0.7036 -2.2791 0.0734 -3.1173 1.3682 -0.5781 -0.3606 -2.2157 4.0102 1.7851 0.1020 2.1540 7.0244 2.9652 2.8982 3.1545 3.4635 2.4245 4.3436 2.2866 1.7601 0.6129 -2.0645 -2.9597 -4.1864 -5.8973 -1.3009
0.8575 -0.5884 2.2731 -0.0825 -1.2248 0.9071 -2.7032 2.6451 -1.1750 -0.4549 -0.3710 4.1846 1.6070 -0.3218 1.5261 8.9805 3.1414 3.4448 3.9121 2.4731 3.1016 5.2598 3.4028 2.7141 0.7618 -1.6632 0.4577 -3.5209 -3.9266 -1.4009
3.3727 -3.4296 0.5775 0.1977 0.1394 -0.1741 -0.4609 0.9208 -0.6600 0.5221 1.1743 4.9898 1.4026 -0.8707 2.0978 5.9074 4.2257 4.0850 5.2635 1.9415 3.5618 6.0986 4.7678 3.7111 1.2690 -0.6592 0.0979 -4.4632 -3.2515 -0.7193
2.9298 -3.6295 -1.4607 0.1124 1.4679 -2.0199 2.2794 -0.7076 -0.0737 1.4314 2.6830 5.3441 1.2672 -0.0851 3.1763 5.4403 4.8909 4.5149 6.6504 3.8597 4.6185 6.6645 6.1229 5.4664 3.0933 1.0717 -1.7094 -3.2791 -1.3924 2.1516
0.4257 -2.6713 -1.4162 0.2433 2.2403 -2.9055 3.5776 0.1612 -0.0914 1.9196 3.4972 3.1160 1.2280 1.6464 4.5411 9.9138 3.9727 4.4077 7.2106 7.1086 4.6799 6.6364 7.2749 7.9366 5.3545 1.1495 -1.4218 0.9087 3.1380 4.3333
1.5056 -3.8002 -0.6697 -0.0786 1.6720 -1.8084 2.0316 1.6708 -0.0642 1.7339 3.5317 1.3856 1.6486 2.5648 5.1839 12.7551 3.2431 4.3287 6.7238 9.5970 4.3306 6.6857 7.8448 9.6280 7.4543 1.0328 1.1314 4.8350 7.4597 4.2174
4.5468 -2.7749 0.3823 -0.8036 0.3184 1.3553 -1.2909 2.5972 0.2816 0.5024 2.4690 3.0708 2.5578 1.7312 3.8640 12.9643 3.9275 4.4764 5.8937 10.1822 5.4153 6.8937 7.2535 9.3908 9.2967 3.3238 2.9122 6.2707 8.5220 5.3831
5.5689 1.3468 2.4047 -0.5248 -0.1914 4.6695 -3.3105 3.2420 0.5330 -0.9053 0.4674 5.0061 2.9855 0.2439 2.6055 13.1887 4.6132 4.2126 5.6935 9.6016 7.2083 6.6246 6.1464 8.5382 10.2152 6.5669 3.1783 6.4667 7.9924 9.2377
6.6107 2.5296 3.8259 0.5514 0.3566 5.3489 -2.9041 2.7166 0.5656 -1.2355 0.8020 4.3256 2.1405 -0.1877 3.5259 12.5400 4.4933 3.3357 5.8068 9.1100 8.3000 6.0996 6.1326 8.5062 9.8133 9.2707 5.0233 7.3636 8.2993 11.2458
8.6382 0.4376 3.1184 0.8430 0.9530 3.2322 -1.7821 0.7576 0.3508 -0.6532 4.8202 2.6542 0.4344 0.5230 4.1250 12.0856 3.8547 2.2207 5.0172 8.1685 8.2621 5.3930 6.7714 8.0380 8.2248 10.9697 8.0351 8.0453 7.2099 8.8434
7.9634 -0.3793 1.5901 0.6237 1.5674 1.1901 -0.5185 -0.8277 -0.1188 0.0945 7.1031 1.1361 -1.2806 0.9648 2.0683 13.5658 1.8360 1.0094 3.3709 5.8920 5.4966 3.3191 5.9539 5.9778 5.5883 7.8882 6.5053 5.6384 2.8508 4.8806
4.3918 -0.1938 1.0375 1.3245 2.3605 1.2313 1.8509 -0.8991 -0.3108 0.8536 3.6357 -0.8256 -2.2452 0.2716 0.0134 13.1867 -1.6050 -0.0372 1.9332 3.3350 -0.5380 -0.1828 3.8522 3.6286 2.4846 -0.6347 -0.2148 0.2682 -1.4071 1.6128
1.9990 -0.2092 1.4851 2.6520 2.4731 2.0957 4.0083 -0.3161 0.1778 1.4306 -0.8280 -2.0733 -1.9333 -0.7780 0.0861 9.1765 -3.8046 -0.2629 0.8594 1.6595 -5.4091 -2.8229 2.1662 1.7636 -0.4164 -5.8727 -5.0960 -3.9417 -3.0885 -1.0061
1.8900 1.5612 2.0380 3.3102 2.1542 1.8555 3.3368 -0.2575 0.7919 1.3239 -0.6657 -1.4146 -0.9851 -1.0057 -0.1373 5.9836 -3.4319 0.0546 -0.5780 0.1334 -5.6023 -3.4852 0.5986 -0.5084 -3.1502 -3.3193 -5.4401 -4.3462 -3.1874 -2.4730
2.4381 3.7385 1.4646 2.8123 2.7428 0.7050 0.3025 -0.7901 0.9184 0.5559 1.9334 -0.7093 -0.5991 -0.4803 -1.6534 4.5539 -2.7200 -0.2947 -2.1405 -1.4306 -4.7528 -3.8160 -1.2659 -2.4797 -5.3353 -1.1351 -5.9507 -2.7622 -1.0290 -2.7000
4.6209 1.4294 -1.0136 1.2163 3.4414 -0.0445 -2.5213 -0.8208 0.8862 -0.2287 1.9452 -1.2711 -0.4521 -0.1190 -2.0904 2.4366 -3.0365 -1.2581 -2.5900 -1.5778 -6.4857 -4.6871 -2.3987 -2.6962 -6.0215 -4.3956 -8.6016 -3.0084 1.2350 -3.1600
9.0345 -4.4431 -3.4680 -0.4967 2.8038 0.1237 -3.9842 0.2786 1.1534 -0.7029 -0.9537 -1.5165 0.2503 -0.5461 -1.9924 1.4739 -3.1750 -1.9103 -2.5142 -1.2450 -8.5916 -5.3523 -3.6470 -3.2877 -6.1889 -8.3890 -11.4756 -7.6462 -4.3131 -4.9873
10.5285 -7.3862 -3.3292 -0.5085 2.1657 -0.3435 -3.5936 0.7923 1.3896 -0.9281 -3.1229 -1.3549 0.3822 -1.6654 -3.3945 2.7583 -2.9652 -2.5821 -3.8060 -3.3473 -9.2970 -5.9264 -6.1897 -6.7623 -8.2561 -11.0426 -14.2406 -14.3022 -15.8289 -8.0348
5.7887 -6.0826 -2.0304 1.0790 2.9332 -3.5950 -0.7208 -0.5489 1.2528 -0.4565 -1.4511 -2.6367 -0.8371 -2.3626 -3.9732 3.5737 -3.3619 -3.5147 -5.2613 -6.6622 -9.8103 -6.4951 -7.5233 -10.0291 -11.5876 -13.9585 -16.2817 -16.6338 -19.3470 -10.9477
0.5690 -4.6078 -1.5635 2.3653 3.8632 -6.9165 2.5402 -0.8303 1.0180 0.8682 1.9094 -4.4242 -1.3032 -1.6658 -2.2372 4.3951 -3.6074 -3.4226 -4.3704 -7.3798 -9.6355 -5.9317 -6.0821 -9.3328 -12.3827 -14.9556 -16.1125 -13.1077 -12.1208 -11.5154
0.3635 -3.2946 0.1279 3.1316 3.9738 -4.7635 2.1587 1.6837 0.8326 1.4838 0.9412 -3.9428 0.1856 -0.6898 -1.9430 6.2956 -2.2575 -1.8599 -2.7282 -5.9431 -7.1896 -4.0514 -4.7776 -7.3741 -9.8242 -11.8322 -14.5860 -9.2994 -6.5238 -9.4527
3.4445 -1.0044 3.4477 3.9564 3.8093 0.7982 -1.9048 2.8495 0.6033 0.1563 -3.7119 -1.0987 1.3832 -0.9322 -4.1783 5.9835 0.3073 -0.1841 -2.8574 -5.1078 -3.3739 -2.0423 -5.0349 -7.9706 -7.6908 -7.1970 -12.7481 -8.6504 -8.5300 -7.7081
6.6170 -1.0494 4.4410 3.6630 3.2342 2.5436 -5.2193 1.0191 0.5583 -1.5037 -5.0546 1.7056 1.2107 -1.3054 -4.8745 2.8826 2.4968 0.8464 -3.1742 -4.5673 -0.0396 -0.3521 -4.7864 -9.2386 -7.7734 -4.3682 -9.6961 -8.7212 -12.8973 -8.1428
7.5949 -4.1963 2.5181 1.9553 1.9026 0.3281 -5.1744 0.7573 0.6824 -1.4251 -3.0537 2.6373 1.4177 -0.2088 -3.1571 1.1121 3.5568 1.5947 -2.0086 -3.0857 2.7658 1.4246 -3.4895 -8.2462 -7.5098 -2.9737 -5.4017 -7.3296 -14.8911 -8.7752
5.0727 -5.2698 1.2351 0.9160 0.7892 -1.4476 -3.1138 2.8950 0.4945 -0.0673 -2.0992 2.2438 2.2449 1.3773 -1.7703 1.8902 4.0787 2.1025 -0.8871 -1.4232 5.4414 3.1568 -1.9574 -5.9644 -5.6661 -1.0678 -1.7569 -4.9836 -12.7357 -7.5011
2.7681 -3.4554 1.0498 1.2430 0.6555 -2.3825 -0.8496 3.6574 0.2537 1.0910 -0.5137 2.7330 2.6499 1.9545 -0.6388 3.3228 4.8964 2.5921 -0.2726 -0.1011 7.1009 4.4214 0.4376 -3.7156 -3.7261 1.0904 -0.1836 -2.0893 -6.5278 -4.9785
4.9842 -3.2500 0.5687 1.5372 0.9032 -2.4576 0.9095 3.6038 0.7115 1.6146 2.3706 4.9808 3.3174 1.9834 1.4892 5.0790 5.8692 3.7932 1.4004 1.6855 7.4905 5.3047 3.4157 -0.9755 -1.6318 2.5488 -0.1518 0.9514 -0.6137 -2.5334
8.0363 -3.4602 0.9959 1.3871 1.0216 -0.0311 1.5194 5.0197 1.4135 1.6972 2.6550 7.3189 4.3680 2.3304 3.3277 7.9378 6.1265 5.1771 3.6574 4.0671 8.0310 5.9485 5.0196 2.0123 1.6430 4.0506 0.3482 3.2535 1.3459 -0.0459
6.7824 0.0485 2.3627 0.9923 1.0918 2.6043 0.2371 5.7549 1.4223 1.6097 2.1835 8.1412 4.3338 2.8293 3.8864 10.8468 5.7196 5.5728 4.8059 5.9742 9.2895 6.4497 5.3175 4.2036 4.6255 5.9250 3.1146 5.2331 1.9506 2.7998
4.6758 3.8565 2.1604 -0.0907 0.8568 2.6171 -2.5512 4.5793 1.1317 1.5939 4.7035 8.0813 3.7943 3.2301 4.3262 10.5197 5.8159 5.6752 5.4175 7.0763 10.2608 7.2616 6.1896 5.6549 5.5115 7.3550 7.2692 7.2399 3.8269 5.2095
6.6718 3.3437 1.2302 -1.1351 0.0604 2.8951 -4.5597 4.8455 1.1562 1.5734 6.1800 8.6910 4.6382 3.5811 5.5592 7.0601 6.7709 6.5891 6.6197 8.6288 10.7135 8.4327 7.7356 6.9248 5.7916 8.8551 9.7148 7.8837 4.8842 6.8245
9.5054 1.9347 3.1660 -0.3456 -0.8089 5.5582 -3.8184 7.6821 1.0582 1.2897 3.8474 9.8053 6.1346 3.5289 6.7115 7.1573 7.8416 7.3185 7.3388 10.5942 11.4951 9.2940 8.5616 7.8315 7.4603 11.2348 9.4980 7.5121 4.4060 8.2133
8.7147 3.0689 7.5913 2.2893 -1.1187 7.2951 -1.4934 9.1810 0.9019 0.7273 2.5279 9.9395 6.4087 2.9110 6.2547 13.0084 8.7344 6.8764 6.5304 10.8962 12.5000 9.6995 8.3588 8.0309 9.3551 12.7582 8.7644 9.2404 6.1083 9.2615
6.8609 3.8207 10.6276 4.7654 -0.8106 6.8066 0.0683 7.4361 1.5906 0.3882 3.8610 9.3441 5.8967 2.5794 4.4600 15.9749 9.6661 6.4289 5.4966 9.8868 12.8820 10.3613 8.2693 7.9693 10.0512 12.1783 9.1680 13.5764 11.7458 9.7424
