Fp1 Fp2 F7 F3 Fz F4 F8 FC5 FC1 FC2 FC6 T7 C3 Cz C4 T8 CP5 CP1 CP2 CP6 P7 P3 Pz P4 P8 PO9 O1 Oz O2 PO10
-1.1400 1.6197 -0.3848 0.0955 1.9122 -0.8849 1.1221 -1.9925 1.3528 0.3576 -3.0064 -0.4159 -1.6267 -0.1259 -3.0324 -0.3137 -2.0199 -2.0161 -1.1847 -4.0546 6.0873 -2.6142 -0.5383 -2.9221 2.6946 1.6563 0.4308 -1.4451 1.5663 0.7703
0.1453 5.7971 0.3594 -1.9335 1.9210 -1.1390 -0.9776 -2.4103 0.5896 0.6488 -0.9995 0.4319 -3.1211 -0.6478 -1.6156 -1.5792 -4.3743 -2.4836 -1.0326 -5.2827 6.3819 -4.0770 -1.5114 -3.7307 1.1400 -0.4848 -3.1675 -5.2949 -3.3725 -1.2442
-2.6114 1.4781 -4.2453 -1.2974 2.1227 0.3314 -4.0595 -1.0411 0.5949 1.0247 -0.4479 -2.7767 -2.8633 -0.4299 0.1496 -2.6791 -5.0974 -2.1969 -0.5359 -3.0047 5.2179 -4.1805 -2.6851 -3.0994 0.0651 -2.5046 -6.8493 -7.2966 -5.3454 -3.2540
-3.0270 -5.5926 -7.7608 -0.2040 1.6018 0.4498 -3.4708 -0.7212 0.5418 0.5071 -3.2629 -6.7068 -2.0279 -0.0429 -0.5466 -2.1514 -4.6288 -1.7019 -0.9701 -1.0131 3.2552 -3.3080 -2.9999 -3.3959 -0.3335 -1.1561 -6.6078 -5.3162 -2.5180 -2.1884
1.1040 -6.7818 -5.5547 -1.1459 0.4090 -0.0750 -2.1136 -1.5203 0.0729 0.2663 -3.9138 -3.8951 -1.6237 0.2256 -1.1430 -1.5573 -2.1283 -1.4934 -0.9727 -0.7932 -2.8936 -2.2426 -1.5884 -3.4274 -1.5597 0.0740 -2.2961 -1.7611 -0.3853 -0.7684
2.8900 -2.5289 -1.1152 -2.0690 0.0498 0.7864 -2.5048 -1.0439 0.2848 0.9707 -1.3177 3.2481 -0.8552 0.5227 -0.3125 -1.4712 2.3406 -1.1004 0.3527 -0.4965 -8.5511 -0.7296 0.1504 -1.1942 -2.0366 -1.4635 0.0597 -1.4576 -3.4394 -1.9066
1.8315 -0.1949 1.9121 -1.4298 0.8762 2.2055 -1.0808 0.5524 1.0050 1.4538 0.1900 5.7236 0.2056 0.7456 0.1727 0.4125 4.6315 -0.1830 1.6020 0.5785 -6.4150 0.8650 0.7662 1.2733 0.5171 -1.7734 -1.5106 -3.1943 -6.0126 -1.9179
2.4293 -0.5850 2.9223 -0.7648 1.6203 1.7891 2.0936 1.8360 0.7882 1.0472 0.2533 2.7237 0.3638 0.4255 -0.1465 2.9942 2.7071 0.3165 1.5121 0.5460 -0.7399 1.0409 0.3634 1.4404 3.0113 0.1160 -2.4611 -2.9356 -3.8872 0.8745
2.1914 0.6903 0.9532 -0.9004 1.4503 -0.2320 0.9638 2.7735 0.0793 0.4308 1.1143 0.1569 0.1233 -0.2973 -0.4319 1.9144 1.0886 -0.1387 0.7203 -0.9042 0.2670 0.3833 -0.2840 0.7607 1.7482 -0.0196 -1.7115 -2.1174 -2.3819 1.8693
-1.1958 2.0044 -3.1118 -1.3038 0.5932 -1.4292 -4.0505 2.2787 0.0350 -0.0238 0.9305 -0.7369 0.1962 -0.6805 -0.5264 -2.2742 1.5978 -0.8685 0.1287 -1.3771 -1.2653 0.3188 -0.6068 0.9195 -0.9924 -1.0689 -1.0836 -2.2534 -2.7535 0.0349
-3.4503 0.7338 -4.4785 -1.4940 0.0793 -1.1883 -5.2853 -0.6188 -0.2302 -0.3421 -1.2575 -1.4725 -0.8372 -0.7852 -0.5328 -4.7661 -0.4161 -1.7156 -0.5889 -0.8333 -0.1064 -0.7134 -0.8475 -0.1076 -2.5230 0.8923 0.7567 -0.6942 0.5347 -1.1232
-2.7850 0.3467 -1.2242 -0.8972 0.8838 -0.9606 -1.3217 -3.1732 -1.0975 -0.0909 -1.8670 -0.7540 -3.0166 -1.0816 -0.6613 -3.9552 -4.6896 -2.6530 -1.4806 -1.8853 1.3944 -3.2294 -1.3872 -3.2211 -3.3039 2.5937 2.9005 1.5764 5.5867 -0.8549
-1.3741 1.9644 2.3846 0.0044 2.0864 -1.3749 2.4577 -2.8430 -0.7300 0.5612 -0.8961 0.4884 -3.4641 -0.9441 -1.0775 -1.5013 -5.0435 -2.4896 -1.5413 -3.6578 1.4176 -3.3669 -1.4211 -4.8735 -2.0355 0.6833 1.5367 1.0614 6.4236 0.0987
0.6401 1.9389 2.8223 -0.2801 1.7869 -1.7729 3.8669 -1.0398 1.0473 0.5795 -1.9358 -1.7379 -1.5763 0.2249 -1.3913 1.0762 -1.9658 -0.9315 -0.7125 -2.9860 3.7894 -0.1236 -0.2880 -3.2124 2.2265 -0.1548 -1.2733 0.1815 5.3126 1.5685
3.2172 0.3283 0.4557 -1.5264 0.2245 -1.6489 3.1508 0.3627 1.8604 0.1404 -3.2509 -5.1556 -0.1674 1.4652 -1.1260 2.2735 -0.8871 0.4246 0.1475 -0.8732 7.4600 1.9520 1.0615 -0.5992 5.6823 2.5521 -1.0770 1.6962 5.0795 2.1026
4.7410 -0.9058 -3.2464 -2.0855 -0.7656 -1.0024 -0.1648 0.9541 1.1245 0.4196 -1.6466 -2.7410 -0.0899 1.7039 0.0041 1.6245 -0.7718 0.9996 1.2084 0.1573 6.6449 1.8112 2.0083 1.7115 5.7558 4.2683 1.1025 2.8000 2.9075 1.5325
4.5501 -3.4003 -5.2276 -1.2657 -0.5101 0.1065 -2.9451 0.6480 0.5468 1.0901 0.4914 4.0006 0.3440 1.1326 1.6081 1.0243 1.6452 1.6230 2.4424 0.6625 2.8882 3.1017 3.0113 3.4922 4.7289 3.8264 2.9891 2.8890 1.0915 2.1044
2.7507 -6.4475 -2.6691 0.4356 0.4633 1.2868 -0.9830 0.2318 0.6195 0.9663 1.0743 6.1646 0.9281 0.2167 2.0255 1.9941 3.0956 1.7523 2.3763 0.9697 1.1378 4.5515 3.3732 3.0583 4.2814 3.8126 3.7072 3.8679 3.8498 3.8371
0.3330 -4.2982 2.2535 1.5663 1.3740 1.3896 3.3571 0.3618 0.6330 0.2605 1.2441 1.9916 0.2818 -0.7447 0.5124 3.8540 0.5648 0.5492 0.8869 0.6519 -0.4386 1.8751 2.1838 1.2392 4.1029 3.4405 2.1790 3.0255 4.8148 4.5861
-0.7602 2.9255 5.3042 1.0401 1.4376 0.1701 4.7806 0.2447 0.7924 -0.1491 0.8877 -1.4091 -0.5197 -0.9692 -0.8174 5.0784 -1.4969 -0.4521 -0.0356 1.3463 -3.8407 -1.6498 1.0245 1.1023 4.0773 1.8759 0.0957 -0.7618 -0.8287 4.0794
-0.9541 5.7088 4.5327 0.3013 0.6836 -0.2770 2.3059 0.0719 1.2924 -0.1479 0.4340 -0.0415 0.0183 -0.1681 -0.0903 4.2001 0.4687 0.1118 0.1117 3.1047 -5.3865 -0.4623 1.4209 1.9562 3.2173 0.4268 -0.5608 -2.5711 -4.6986 2.9939
-2.0395 -0.2298 0.0085 1.1981 -0.0089 1.3254 -1.2208 0.9744 1.2826 -0.0004 1.4481 1.9231 0.7519 0.4873 1.1476 1.5998 2.1602 0.9096 -0.1546 2.7997 -3.2765 2.0155 1.8189 1.2367 1.4063 -0.9321 -1.8239 -1.2569 -1.9244 1.6758
-2.5583 -6.9341 -4.0633 2.6869 -0.0738 3.1196 -2.0260 1.7774 0.6690 0.1337 2.1775 0.3630 0.4771 0.2757 0.8311 0.3857 0.1084 1.0926 -1.0894 0.0593 0.0138 0.8019 0.9789 -0.4399 1.1833 -1.2699 -3.5785 -0.4454 0.9124 1.5940
-0.5277 -7.3750 -2.3972 2.8010 0.3257 3.5906 0.7050 1.0146 0.4013 0.2108 1.0386 -1.5379 -0.0175 0.0693 0.1615 1.8150 -1.9269 1.7561 -1.4991 -1.4070 1.8140 -1.4133 0.4499 -1.2472 2.7497 0.7649 -2.2547 0.1182 1.0689 3.1968
2.3339 -3.5583 1.6517 1.6072 0.4401 2.8983 2.7717 0.1089 0.2482 0.0719 0.4805 0.5323 -0.1549 0.1692 0.9636 3.1855 -1.1298 2.6281 -1.1595 0.4327 -0.1548 -1.9800 0.7574 -1.0607 3.0428 1.9993 0.9232 1.8196 1.8846 3.8421
3.5931 0.5227 0.8492 0.5146 -0.3725 0.5714 1.5956 0.5325 -0.5187 -0.7082 0.9228 3.8653 -0.0397 -0.1987 1.8198 2.9494 -0.0307 2.5443 -1.0591 2.9703 -3.7712 -1.9633 0.4102 -0.7115 1.9833 0.3503 1.5705 2.0855 2.5184 2.1121
2.5168 3.7113 -2.6972 0.5841 -1.3882 -2.7379 0.8363 1.4945 -0.8197 -1.8370 -0.7856 3.7401 0.6088 -0.7862 0.9220 2.3135 -0.0823 2.5369 -1.5933 2.8140 -1.7672 -0.5913 -0.1849 -0.7160 2.0730 -0.2493 0.2730 0.2955 1.4733 0.5269
0.0118 5.3981 -2.5237 1.4114 -1.3352 -4.0826 2.8266 1.6852 0.1939 -1.9337 -3.6428 0.6567 1.1418 -0.7781 -0.0101 1.8474 -0.3386 3.4134 -1.9096 0.9526 5.6046 1.5040 0.3230 -0.7569 2.8311 1.5977 0.4746 -0.0883 1.6913 0.7756
-0.9560 4.0092 0.1636 1.3260 -0.4236 -2.4143 3.2644 0.6419 0.8541 -0.4587 -2.3250 -2.3755 0.4802 -0.4214 1.0831 1.1402 -0.6059 3.7229 -1.4244 0.5283 8.5381 1.1674 0.7724 -0.5561 1.8592 1.6753 0.9646 0.8280 3.3867 0.8221
0.3044 -0.5288 1.0648 -0.1528 0.3481 0.2918 -0.8465 -0.8311 0.1092 1.2716 2.7401 -3.9770 -0.3733 -0.1601 2.3688 -0.2451 -0.3043 3.2000 -0.9646 0.5231 4.2189 0.3367 0.0247 -0.9422 -0.4893 -1.2910 -2.0430 -0.5235 2.8954 -0.3982
0.2827 -4.6270 0.9068 -1.5169 0.8421 2.1706 -4.8197 -1.6562 -0.6077 2.0049 4.0821 -3.7728 -0.3696 -0.0662 1.6549 -2.0725 0.7599 2.8782 -1.2121 -1.3155 -0.7484 1.9335 -0.5325 -1.8806 -1.3782 -3.8764 -5.6502 -2.8685 0.3036 -0.8502
-1.4628 -5.0423 1.1202 -1.8188 1.1882 2.2478 -3.9197 -2.0170 -0.7186 1.9357 -0.3008 -1.3913 -0.6727 -0.4420 0.6790 -2.3787 1.0698 2.1904 -1.4067 -2.0842 -3.3446 2.6332 -0.0150 -1.1764 -0.2716 -4.2289 -3.9132 -2.8596 -2.3796 -0.6442
-1.6499 -3.1140 0.6224 -1.5539 1.1659 0.7737 -0.7854 -1.9216 -1.1314 1.6459 -3.3315 2.1035 -1.4735 -1.1626 0.9836 -0.3948 0.8780 0.9546 -1.0734 0.4277 -4.4735 0.7820 0.3993 1.4170 0.0583 -3.5670 -0.4008 -2.9349 -5.7722 -2.3079
-0.4381 -1.6396 0.2107 -1.1333 0.8692 -0.1117 0.7998 -0.6315 -1.4089 1.3728 -1.7247 3.5386 -1.3205 -1.3640 0.8761 1.2296 1.3571 0.6796 -0.7853 2.0222 -3.3943 -0.0045 0.0618 2.4952 -0.9932 -2.7414 -1.6413 -5.0188 -7.8908 -4.4937
0.2715 -0.9721 1.0510 -0.5113 0.5067 0.1533 2.0709 0.9101 -0.7853 1.2366 -0.6157 1.8102 -0.6328 -0.8177 0.0102 0.8826 0.8958 1.2775 -0.7684 0.2997 -1.3505 0.6280 -0.2037 0.4256 -1.3928 -1.6923 -3.7473 -4.6610 -4.5979 -4.0407
0.9204 -0.3932 0.7049 0.4292 0.0238 -0.9418 4.0930 1.1620 -0.0762 0.8109 -2.7881 0.0655 -0.5392 -0.4095 -0.4951 -0.0813 -1.0469 1.0050 -1.4636 -2.0010 -2.0476 -0.0427 -0.2066 -2.8051 -1.9143 -1.5352 -1.7865 -0.7551 1.1429 -2.4490
0.8406 -0.1360 -1.6830 1.5688 -0.1035 -3.1720 4.4440 0.8846 0.4639 -0.3092 -4.8142 0.1601 -0.2440 -0.7008 -1.9529 -1.1806 -1.7563 -0.2149 -3.4770 -4.4309 -4.9613 -1.4050 -0.8796 -5.4386 -3.5820 -2.9419 -0.2460 1.0984 2.9203 -2.2519
-1.3965 0.1259 -2.4834 1.8782 0.5789 -2.8966 2.2683 0.9838 1.4725 -1.0435 -4.4936 0.4530 0.3738 -1.0871 -4.3259 -2.7868 -0.8800 -0.9017 -5.0591 -7.0717 -5.0985 -1.6718 -2.0101 -6.3509 -3.4435 -3.8085 -2.3904 -0.6852 1.5760 -2.3645
-2.4255 1.2750 -0.1146 0.0140 1.0252 -0.1252 -0.1301 0.0977 1.8357 -0.2003 -2.8166 0.1355 -0.4487 -0.9611 -3.9243 -3.1410 -1.1849 -0.6805 -3.8546 -5.8041 -0.5701 -1.7758 -2.0435 -4.4409 -0.1752 -2.5493 -3.5115 -1.7256 1.4477 -1.4502
2.1666 0.7410 2.6959 -3.6420 0.1725 2.2458 -1.6074 -2.4382 0.3556 1.2944 -0.0316 -0.5643 -2.6952 -0.5306 -0.3092 -0.7227 -3.1334 -0.6308 -1.0144 -0.0418 4.0572 -2.8242 -0.7117 -1.1034 3.1472 -0.8419 -0.9514 -0.1013 2.8094 0.3991
8.1697 -3.9068 3.3172 -6.4394 -1.0515 3.7055 -2.9720 -4.2344 -1.1484 1.8405 2.7619 -1.9379 -3.8749 -0.2095 2.1359 1.7214 -4.3133 -1.0451 0.6356 3.5383 4.0079 -3.1625 0.7024 0.4624 4.3567 -0.6690 0.6292 1.4974 3.8814 2.4113
6.7959 -6.8003 1.6634 -5.7368 -1.2081 3.9215 -3.3733 -3.0424 -0.5983 1.4349 1.9329 -2.7992 -2.8950 -0.4282 1.1139 0.8108 -3.8123 -0.9210 0.1626 1.3132 0.9182 -1.3880 1.3128 -0.5618 3.5905 -1.7222 -2.0650 0.5172 2.9886 2.3084
-0.8799 -2.2721 -0.2051 -1.9258 -0.2340 1.9665 -0.8657 -0.0446 1.0619 0.9643 -2.3673 -1.6109 -1.2963 -1.3105 -1.4169 -1.5243 -3.2997 -0.2247 -1.6367 -2.3221 -0.1845 -0.0280 0.8616 -2.0677 1.2037 -2.3529 -4.5673 -1.8805 -0.3903 -0.3999
-4.9821 3.5452 -0.8744 1.5321 0.8424 -0.4907 2.5736 2.0004 2.1200 0.7452 -4.4237 0.2551 -0.3642 -1.9141 -2.7671 -1.8374 -3.1323 0.1013 -2.9379 -2.9788 1.5133 -1.1483 -0.4045 -2.3357 -1.9087 -1.7242 -2.3633 -2.5516 -2.8957 -2.3101
-2.1427 4.0012 -1.2892 1.9480 0.8719 -1.7615 2.7564 2.0745 2.4432 0.6554 -1.9563 0.5802 0.2449 -1.3684 -1.9990 -1.0993 -1.7126 0.2480 -2.2393 -1.6750 2.4250 -1.8335 -1.1375 -1.6553 -3.8682 -0.6183 1.0297 -0.9768 -1.3602 -2.0391
2.7618 2.5527 -1.2829 0.0625 -0.1901 -2.0730 0.7657 1.0811 2.2672 0.8172 0.9574 -0.3399 0.7809 -0.2027 -0.2148 -0.6335 0.0238 0.7676 -0.5042 -0.6449 1.4977 -0.1393 -0.1733 -0.7342 -2.8853 0.1868 0.8583 0.6579 1.2934 -1.5759
6.4349 2.6015 1.1019 -1.6057 -0.9737 -0.7541 1.2302 0.6792 1.6744 1.3974 1.6688 -0.2943 0.9260 0.6599 1.0472 1.0698 -0.0913 1.2210 0.3467 0.1975 0.7148 0.9857 1.5166 0.3372 0.0014 0.2990 -1.1928 0.7301 0.3103 -1.0956
7.1200 2.4726 4.2810 -1.2081 -0.5602 1.8179 3.5325 2.2215 1.4305 1.9621 1.7584 2.2316 1.2456 0.7845 1.3936 2.9363 0.2159 1.4046 0.2399 0.9151 -1.7239 0.6214 1.8799 0.8387 0.3379 -1.4892 -2.6261 -1.2218 -3.8733 -0.5576
3.1070 1.8746 3.9974 0.7933 0.2259 2.5464 2.8450 4.6520 1.8617 1.9333 2.1484 5.0113 2.3903 0.2214 1.1542 1.5243 3.6952 1.5885 0.1559 0.5836 -7.6300 1.8049 0.6597 -0.2416 -2.9754 -5.0106 -4.7097 -4.1128 -6.3174 -1.6152
-1.6700 1.1507 0.9347 1.6131 0.2388 1.3570 -0.6852 4.8618 1.8491 1.5468 1.9347 3.2431 3.0898 -0.2371 0.9331 -1.4121 6.0653 1.2677 0.5754 0.0501 -10.3141 3.6730 -0.3074 -1.3772 -4.2768 -7.1163 -6.9775 -5.1196 -4.5286 -2.9317
-1.6029 -0.4867 -0.2501 0.3750 -0.2290 1.7445 -1.8274 2.4969 0.9999 1.4363 1.7389 -2.2018 2.0279 -0.0094 1.4106 -0.8398 2.2763 -0.0372 1.4689 1.1495 -5.2358 1.7412 0.0323 -0.0832 -0.9633 -5.8605 -5.9087 -3.6399 -2.6053 -2.2233
1.5499 -1.6142 0.7851 -0.0417 -0.1234 3.4677 0.6544 1.0986 0.6815 1.6502 2.8125 -3.2890 0.7119 0.3963 2.1453 2.4697 -2.9808 -1.2207 2.2432 2.7479 -0.4972 -2.2543 0.6766 1.7898 1.4674 -3.2031 -2.1378 -2.5576 -3.7790 -1.3642
3.5567 -0.8584 1.0090 1.0456 0.3076 3.0471 2.9851 2.2341 1.1821 1.6503 3.1522 1.9863 0.9789 0.6955 1.8374 3.7406 -2.4111 -0.7611 2.3652 2.5631 -1.2774 -1.8780 0.9651 1.0910 0.4621 -1.6158 -0.6345 -2.4814 -3.2991 -0.9361
4.7487 0.1324 0.9189 0.3290 -0.1803 0.6403 3.8988 2.9355 0.9467 0.9811 0.3555 4.8994 1.3624 1.0537 0.4550 2.9364 0.6145 0.7751 2.2152 1.6230 -0.6578 1.6695 1.5953 0.1356 1.0134 -1.1416 -1.3971 -0.5647 2.2341 2.0601
5.9189 0.8363 2.0974 -2.5566 -1.3669 -1.1834 4.6582 0.9423 -0.3999 -0.1110 -3.1341 1.3558 -0.2755 0.8589 -0.6162 3.1054 -1.0130 1.1847 2.0213 1.4749 3.7719 1.4072 2.4307 1.5102 4.8123 -0.7321 0.0901 2.6177 6.8177 6.1147
5.3894 2.5117 2.1631 -4.1366 -1.8255 -2.3681 4.1764 -1.8024 -1.5524 -0.8619 -3.9814 -2.3264 -2.5795 -0.0784 -0.5925 3.5167 -4.7642 -0.1646 1.3537 1.0663 5.5445 -2.1680 2.5182 2.3741 6.8853 -0.3875 2.2152 2.6340 5.2266 5.8825
3.1576 3.7658 -0.4312 -3.8592 -1.5422 -3.4405 1.5189 -2.7249 -1.9184 -0.8759 -2.9239 -2.8126 -3.0871 -0.6445 -0.0615 2.1913 -5.1555 -1.6464 0.5365 0.5996 3.2654 -3.4193 2.2078 1.7381 5.0230 -1.1125 0.1491 -0.5608 1.0429 1.5673
2.1699 2.8042 -2.3157 -4.0441 -1.5736 -3.1424 -1.4734 -2.0481 -1.8424 -0.3029 -0.9723 -2.5317 -2.2054 -0.5763 0.2017 0.4390 -3.5720 -2.0242 0.1766 1.4408 0.7750 -2.3516 2.1747 2.1733 2.5836 -3.2838 -2.9969 -1.9407 0.0419 -1.1330
3.5593 1.2571 -1.2381 -4.4073 -1.7074 -0.9819 -3.7899 -0.9845 -1.2170 0.6652 2.2857 -1.5816 -1.1732 -0.5085 0.3782 -0.4024 -2.0413 -1.4270 -0.0092 1.9105 -0.3248 -1.2098 2.0892 2.2659 2.1367 -5.0600 -1.7811 0.3171 3.4149 0.9118
4.2514 0.0308 0.5016 -3.2414 -0.9772 2.0769 -5.5983 0.1531 0.1310 1.7167 5.2843 -0.4823 0.2424 -0.0234 1.1057 -0.5549 0.1763 -0.3920 0.2229 1.1434 -0.0816 0.4825 2.1119 0.8587 3.3968 -3.8960 1.1703 2.5755 6.3907 4.3634
1.4376 -1.6443 1.5693 -1.1514 0.3194 4.9159 -5.2843 1.1865 1.3922 2.2041 6.2521 -1.6415 1.6743 0.9753 1.9581 0.7604 1.6090 0.3026 1.4551 1.7584 -0.1961 1.7695 2.5981 1.9829 5.3999 -1.4229 0.2722 1.3794 3.0553 4.0346
-2.7598 -1.1388 3.4086 0.8792 1.1128 5.6704 -1.2845 2.2513 1.8097 1.8628 5.5337 -2.0840 2.2788 1.2715 1.9289 3.3148 1.3417 0.3902 2.5343 3.5311 -1.4960 1.6536 2.6833 5.0198 6.2887 -1.9509 -4.1696 -2.0215 -3.2831 0.5322
-3.1187 2.5544 5.2642 2.7346 1.1722 3.4539 4.7754 3.7309 1.9432 1.2963 3.1308 1.9001 2.5987 0.8997 1.4475 4.9742 1.6628 0.5436 2.3303 3.8926 -0.3146 1.9348 1.9660 4.3425 4.4915 -4.0454 -6.3015 -3.1131 -3.8342 -1.3909
1.9933 3.0027 4.3286 3.0516 0.8992 0.5746 8.7246 4.5219 2.3932 0.9326 -0.1265 5.3158 2.7349 0.9262 1.1906 5.4580 2.5695 0.6869 1.4708 3.4552 3.1229 2.2022 1.1001 1.0199 1.6807 -3.0170 -2.7534 -0.3553 0.6615 -0.8590
7.6489 -1.8971 1.1708 0.8614 0.4586 -0.9112 7.0615 3.1923 2.5762 0.5023 -0.7516 2.6125 1.7299 0.8054 0.2587 5.2409 1.8360 0.1197 0.3010 2.6042 2.2277 0.5070 0.1659 -0.8082 0.6337 -0.8337 1.3781 2.5815 3.5202 0.0798
8.6400 -4.2140 -1.2984 -2.0277 -0.2408 -1.5231 1.2429 0.6421 1.8196 0.1085 1.3434 -2.2090 -0.0453 -0.1841 -1.2390 3.3972 -0.5581 -0.8232 -0.8573 0.5774 -2.7427 -1.7286 -0.5940 -1.7123 1.1025 -1.6857 0.2181 2.1035 3.1009 0.7203
5.3050 -1.4615 -2.5489 -3.4493 -1.0976 -1.5410 -2.6171 -1.1549 0.4440 0.0945 0.9518 -3.3079 -1.3731 -1.0981 -1.6621 0.4173 -3.2092 -1.7259 -0.8440 -0.3859 -5.1982 -3.0866 -0.7407 -2.0942 0.1103 -3.8274 -4.0148 -1.6874 -0.8650 -0.7073
0.4179 -0.2501 -2.5752 -3.0144 -1.4801 -0.8771 -1.5400 -1.6536 -0.6477 0.0217 -2.7874 -2.4163 -1.9377 -1.3585 -1.5960 -1.9665 -4.3655 -2.5754 -0.3887 0.2510 -4.6500 -3.8836 -1.2998 -1.5551 -4.0269 -5.1466 -7.1799 -5.9193 -7.2729 -5.2639
-3.2634 -1.9501 -0.3433 -1.6213 -0.9586 -0.4932 1.0176 -1.6035 -0.9065 -0.3560 -4.4003 -3.1660 -1.8916 -1.5493 -2.4798 -3.0033 -3.2638 -2.6390 -1.1805 -0.7569 -3.1393 -3.3478 -2.6123 -2.0593 -7.5491 -6.4833 -8.1570 -6.5222 -8.9316 -8.0259
-2.3879 -1.8814 2.8003 -0.3423 -0.0256 -0.2108 2.4535 -1.2259 -0.3262 -0.2391 -2.2204 -3.5707 -1.2415 -1.7758 -2.9503 -1.9629 -2.2133 -1.7297 -2.2350 -3.0661 0.2717 -2.2411 -3.0018 -3.7658 -5.4757 -6.2892 -5.3719 -2.5868 -3.0812 -4.7751
1.3663 1.0714 4.5554 1.1768 0.8744 1.1900 3.9532 0.4555 0.9613 0.7032 0.5604 -1.2288 0.0110 -1.7308 -1.7261 0.4629 -2.4283 -0.9956 -2.1867 -3.9528 2.2649 -2.8117 -2.3738 -4.7534 -1.1102 -3.2486 -0.6730 0.6474 1.4208 -0.4485
0.4893 4.5452 4.5992 3.4898 1.6493 2.6513 4.4484 2.8775 2.2492 1.5943 2.6410 1.5540 1.1826 -1.4935 -0.1813 0.9317 -1.5749 -0.7782 -1.6543 -3.8218 -1.5242 -3.5412 -2.1054 -4.6036 -1.0075 -1.3321 -0.5816 -0.8877 -1.0687 -1.0232
-4.9721 5.8252 2.7672 4.5403 1.7690 2.4981 1.8001 3.1135 2.4092 1.8258 3.4675 3.1882 1.1028 -1.1421 0.5542 -1.1557 0.3528 -0.3411 -0.9044 -3.0623 -5.2202 -2.1599 -1.6185 -2.9425 -2.8025 -3.1709 -4.6943 -3.4838 -4.3264 -3.7988
-5.8909 2.5044 -0.1504 2.7982 1.1530 2.0769 -0.8972 1.2774 1.7631 1.6631 1.9124 4.4760 0.2469 -0.6768 0.5533 -1.9924 0.8474 0.3985 -0.1042 -1.3860 -1.9431 -0.4988 -0.3778 -0.3320 -1.6049 -5.0458 -5.7164 -3.1940 -4.0328 -4.3101
-1.9561 -4.0804 -2.2923 1.1935 0.6827 2.9540 -0.7552 1.3920 1.7418 1.2755 0.0021 4.2208 0.2620 -0.3332 -0.3475 -0.7161 0.6877 0.7849 -0.5642 -0.8478 1.7797 -0.2993 -0.2668 0.0693 -0.6605 -4.6920 -3.5969 -2.6579 -4.5075 -4.3104
-1.7641 -8.0670 -4.2136 2.0208 0.5463 3.3849 -1.0301 3.5241 2.1844 0.7658 0.2649 1.3801 0.6154 -0.2046 -1.2910 -0.6991 1.2315 0.1858 -1.7745 -1.8574 -3.1248 -1.0598 -2.0890 -2.0862 -3.1879 -5.5666 -4.0788 -4.3471 -7.4150 -6.1578
-3.9399 -5.9491 -5.4683 2.1558 0.0104 1.8587 -2.9396 3.0836 1.7029 0.7603 0.9566 -2.1644 -0.2468 0.0676 -0.6288 -2.1939 0.3530 -1.2015 -1.3867 -1.5591 -12.1427 -2.8698 -3.5196 -3.0101 -5.2223 -8.7390 -6.2779 -5.6366 -8.4597 -7.7279
-0.8875 -1.6100 -2.8487 -0.6610 -0.9119 0.5872 -2.7096 -0.2081 0.2530 1.4171 0.5865 -4.4033 -1.3208 0.6792 0.7009 -2.5203 -2.4285 -2.0945 0.1032 -0.0954 -14.2231 -4.8213 -2.8880 -1.8732 -4.6474 -9.6924 -5.7621 -4.6371 -6.3493 -7.4526
3.9080 -0.3712 1.3930 -2.8186 -1.2363 1.3333 -0.5683 -1.8943 -0.8970 1.8009 0.7588 -4.1643 -0.9186 1.1792 0.5175 -1.9707 -3.7312 -1.8167 0.1763 -0.1625 -6.6930 -4.3829 -1.5214 -1.3726 -4.4452 -6.5462 -3.4007 -3.0141 -3.8183 -6.7216
4.1199 -0.1717 2.4342 -1.6652 -0.5049 1.5416 1.4086 -1.1474 -0.9178 1.3088 0.3247 -1.0735 0.2939 1.1574 -0.3870 -1.2845 -2.4965 -1.0369 -0.6381 -0.6814 3.8252 -1.7927 -0.6200 -1.4125 -3.9140 -2.4804 -1.4104 -1.1595 -1.0960 -4.7406
4.5877 4.7902 3.8025 -0.2238 0.3623 -0.8268 5.5641 -0.7045 -0.1810 0.4958 -2.1587 3.1779 1.0892 0.9391 0.1328 1.5476 -1.2302 -0.2149 -0.0238 0.8804 10.0823 0.1880 0.6428 0.1376 0.2609 0.9253 0.8536 2.2409 3.4630 0.6994
9.1525 12.7335 8.6801 -0.7059 0.3960 -2.7161 9.9689 -0.5358 0.3256 0.2865 -1.8404 5.9522 1.5775 1.2041 2.2875 5.3538 -0.6159 0.5962 1.7362 3.2928 10.7652 0.7861 2.3520 2.1832 5.0598 4.2847 2.9275 5.6427 8.0295 6.3527
10.4582 15.4983 10.3715 -0.7687 0.1789 -1.1999 8.0756 0.9975 0.4043 1.0048 2.6171 6.0067 2.1554 2.1720 4.6927 5.5210 0.9202 1.1567 2.9331 4.3636 9.2720 1.4527 3.1280 2.5747 5.6454 6.0929 3.4972 6.0907 8.4702 6.8891
4.7821 10.7749 5.8811 1.0073 0.5285 1.3714 2.7656 2.9883 0.8265 1.7055 3.9838 4.8936 2.8140 3.0121 5.1271 2.9452 3.2912 1.5267 3.1217 4.1685 7.4259 3.1614 2.7919 2.5938 4.1080 4.9044 3.4801 4.0911 4.4504 3.8836
-0.5775 4.0794 1.6460 2.7074 0.6805 2.0569 0.8368 3.9777 1.6394 1.1799 1.8848 5.1861 3.4023 2.5235 2.7084 1.9284 4.9959 1.4898 2.3274 3.3413 4.4090 5.1498 2.0092 3.2134 3.4391 2.8092 3.5558 2.5498 1.0906 2.0497
-1.4742 -0.5655 0.1670 3.2053 0.0722 2.0001 0.0980 4.1100 1.8665 0.1123 2.9990 5.8445 3.5077 1.1272 0.2473 1.8834 5.4381 0.3089 0.9497 2.5860 1.0908 5.5167 0.6825 2.5615 2.0212 1.9319 3.0316 2.3368 1.5897 1.0836
-1.5632 -3.7695 -0.8580 3.1970 -0.0220 2.9564 -1.2168 3.2698 1.3503 0.1882 5.0425 3.5899 2.7033 0.6594 0.2342 1.6866 4.0825 -1.3363 0.4689 2.8192 -0.8030 3.3714 -0.5999 1.8278 0.5130 0.9593 1.5606 1.2301 0.8587 -0.6463
-1.9064 -5.7796 -0.8662 2.4754 1.0782 4.0162 -0.1218 1.3588 0.9861 1.1848 3.0248 -0.7942 1.3575 1.5118 0.8096 2.8553 0.5629 -1.6160 1.0556 3.0749 -1.7297 0.3456 -0.6008 3.6237 1.8451 -0.9662 -0.6665 -1.6979 -4.5485 -1.2177
0.3415 -4.6639 0.0307 0.4937 1.9304 3.5175 0.5811 -0.0600 0.9365 1.6210 0.9908 -3.3790 0.6095 2.3917 0.1048 3.3256 -2.5498 -0.4640 0.9799 1.6096 -1.0929 -0.8900 0.3285 4.1049 3.4986 -0.7971 -1.2155 -2.4283 -6.4126 0.5539
4.9671 -0.0069 0.1398 -1.6086 1.3766 1.1196 -1.5537 -0.1353 0.4838 1.4008 1.2536 -2.5849 0.9386 2.6435 -0.3613 0.7310 -2.0511 0.5953 0.3183 -0.4078 2.9447 0.5251 1.0740 -0.0212 1.7115 2.8755 2.0191 1.3398 0.4166 2.7009
8.2402 5.0987 1.1241 -2.5870 0.1501 -1.7423 -0.9762 -0.2316 -0.3594 1.2849 -0.3797 0.0549 1.2429 2.1974 0.3276 -1.2363 0.3897 1.0144 0.6092 -0.6966 6.9506 2.6547 1.3466 -3.2499 -1.0067 5.4555 4.4794 3.9318 6.0228 3.6959
7.3918 7.8709 4.1269 -2.6938 -0.4582 -2.8099 2.6777 -0.7989 -0.7603 1.1769 -2.5052 1.8605 0.4209 0.7786 0.8631 -0.2532 0.7963 1.0089 1.0790 0.0362 5.5373 2.7164 0.9243 -2.1556 -1.2750 3.5904 1.8379 1.3770 3.6015 3.3075
3.4542 8.4954 5.9767 -2.0386 -0.1549 -1.7157 3.1199 -0.4608 -0.4129 0.7727 -0.5207 1.2938 -0.7388 -0.9418 0.8411 0.3441 -0.8082 0.2314 0.1466 -0.1007 0.6865 0.1889 -0.2132 -1.7265 -1.0613 0.3410 -1.3599 -1.5764 0.2858 1.0741
-0.3513 6.6270 4.6612 0.0367 0.3916 -0.2622 2.1943 1.2971 0.3509 0.3815 1.6345 0.2019 -0.6951 -1.5843 0.4033 -0.4222 -1.5718 -0.9977 -1.5939 -1.0583 -3.1722 -2.3329 -1.2224 -3.7901 -2.7624 -1.8483 -1.5469 -2.0943 -0.0072 -2.2047
-2.8397 1.7313 1.8816 2.8713 0.7756 0.7211 4.1499 3.2318 1.1086 0.3072 -0.4506 1.4227 0.2446 -1.1838 -0.9904 -0.4603 -0.6608 -1.4610 -2.8459 -2.3571 -6.2037 -2.5561 -1.8434 -4.4058 -4.5234 -4.4706 -2.7448 -3.5309 -1.9706 -3.9888
-4.3480 -2.0203 -0.0797 4.1285 1.1470 1.7811 4.2346 3.1809 0.9074 0.5913 -1.2560 3.7790 -0.0143 -1.1222 -2.0056 -0.7608 -0.5601 -1.7354 -3.1295 -3.8737 -7.2746 -2.2697 -2.9267 -3.7582 -4.8896 -6.6575 -6.2091 -5.8377 -5.1199 -4.1179
-3.5389 -0.9137 -0.1838 2.6173 1.1232 2.1561 0.6085 0.4245 -1.0652 0.9907 2.2522 3.5993 -1.9613 -1.7441 -0.6860 -2.1456 -3.1275 -3.1450 -2.4087 -3.8749 -4.6295 -4.1140 -4.1419 -4.2577 -5.3752 -5.7709 -7.6649 -5.7511 -4.9625 -5.0426
-0.2270 0.9430 0.0186 -0.1153 0.0494 0.2255 -0.2302 -2.0116 -3.3996 0.6568 2.5634 0.8034 -2.9279 -1.8123 1.0269 -1.7077 -4.6250 -3.9403 -1.1733 -0.8351 -3.7495 -5.6328 -3.7695 -3.1940 -5.5022 -4.4048 -6.6505 -4.8200 -3.9024 -6.2066
1.8655 -0.5759 -1.4912 -1.8632 -1.4492 -3.0132 2.0648 -1.5026 -3.7155 -0.8288 -2.6921 -1.1016 -1.6068 -1.0164 0.2954 0.8077 -1.4391 -2.5175 -0.2998 2.8379 -8.7221 -3.6340 -2.1625 0.6194 -3.7732 -6.4791 -6.7733 -5.7764 -5.8135 -5.2433
0.6816 -2.1243 -2.0194 -2.0008 -1.8429 -3.9408 2.3088 -0.3725 -2.4313 -2.1325 -4.9452 -0.6775 -1.0022 -0.7513 -1.3687 1.6438 1.0006 -1.8318 -0.4033 3.3979 -13.0752 -1.8258 -1.9615 1.5332 -2.8871 -9.0338 -7.8421 -6.1899 -7.3119 -3.6771
-0.5431 -1.2223 1.5462 -1.1409 -0.6598 -1.2082 1.7822 -0.7604 -1.8952 -1.6977 -0.7996 -0.3207 -2.6688 -1.2854 -1.4084 0.5913 -2.5120 -3.8415 -1.3801 1.0080 -11.6109 -4.4526 -3.5749 -2.4918 -4.8602 -7.8891 -6.8518 -4.2290 -5.3176 -3.8862
-0.3428 -1.1889 4.9364 0.0699 1.0105 2.0395 2.7486 -0.6318 -2.3931 -0.2556 3.2079 -1.8892 -3.5602 -1.4244 -0.8103 0.4108 -6.1931 -5.3142 -2.4591 -1.4794 -7.9622 -7.6234 -4.5526 -5.5499 -6.0510 -5.5468 -4.8388 -3.1983 -3.5908 -4.6105
-3.1281 -2.6764 2.9672 1.4883 1.8674 2.8551 1.7646 0.7652 -2.6173 0.1426 3.0102 -3.4211 -2.4817 -1.4019 -1.4387 -0.0417 -5.0966 -4.4638 -3.3340 -3.0025 -5.4563 -6.7868 -4.1439 -5.0786 -4.3501 -4.9887 -4.9788 -4.5408 -4.1739 -4.4812
-9.1928 -1.9286 -1.3652 2.9734 1.6084 2.0221 -1.6731 1.2933 -2.4232 -0.7619 1.5175 -2.5145 -1.9547 -2.0299 -2.2985 -2.6533 -3.6810 -3.7671 -4.2493 -3.7262 -3.8629 -4.9086 -3.9050 -4.7728 -3.3937 -4.1221 -5.9935 -4.9184 -3.5467 -4.5474
-9.8780 0.4453 -2.8822 3.3325 0.6824 1.0774 -2.7340 0.7619 -2.2856 -1.3667 1.7445 -0.6601 -2.2414 -2.1367 -1.4652 -3.9196 -3.9595 -3.8144 -4.2864 -2.4013 -2.8282 -5.0990 -3.7146 -4.8179 -4.6594 -1.5816 -4.5861 -3.0127 -1.1595 -4.8583
-2.3867 -0.0185 -2.1388 1.6594 -0.4457 0.2452 -0.7447 0.4659 -2.1858 -0.9649 2.6918 0.1357 -1.5733 -0.8032 0.1920 -0.9475 -2.2639 -2.6665 -2.3692 1.0277 -1.0039 -4.3909 -2.1588 -2.0087 -4.4290 0.4028 -2.4426 -1.6247 -1.0036 -3.7294
3.1530 -2.1807 -1.6471 -0.1108 -1.1741 0.1089 0.3653 0.6524 -2.2516 -0.3305 2.4557 1.6228 -0.5960 0.4734 0.4838 1.9874 0.6882 -0.8975 -0.1097 2.8425 2.3176 -1.0158 -0.3646 1.3897 -1.9797 0.5226 -3.3483 -2.3716 -3.6733 -2.0636
0.9453 -0.3574 -1.0936 0.2324 -1.0932 0.5821 -0.0012 1.6385 -2.6380 -0.0225 1.3628 4.1933 -0.5364 0.6309 -0.1784 0.8855 1.3971 -0.4741 0.1986 1.1692 4.5273 1.3452 -0.1989 0.9387 -0.6883 0.4275 -4.3116 -2.4228 -4.1204 -2.2082
-1.4707 4.3751 0.7233 0.8110 -0.9751 -0.1208 0.5704 2.5620 -3.0610 -0.1325 -0.0079 4.3272 -0.6988 0.6116 -0.3677 -0.7507 1.2817 -0.6695 -0.5817 -0.0584 4.0008 1.2636 -0.3042 -0.8470 0.2301 2.1577 0.5262 1.6572 1.1927 -1.8034
1.3637 4.1406 3.6807 -0.7600 -1.4093 -1.3035 2.1187 1.1905 -3.2951 -0.6125 -1.5936 2.8801 -0.6215 0.7739 -0.6569 1.0771 2.8428 0.1273 -0.5144 1.6148 3.1003 2.2485 0.8100 0.2838 3.5727 4.6940 7.2288 6.8659 7.5895 2.2539
3.7710 -1.1463 6.1047 -2.0155 -1.0922 0.0834 2.8217 -0.8261 -3.2633 -0.6879 -1.5038 4.4603 -0.8829 0.3298 -0.9732 3.7653 3.7201 0.9972 -0.0545 3.0661 4.2142 4.2866 1.3264 1.8995 5.9351 4.6861 7.1710 6.7881 7.6154 5.9954
1.0842 -2.5467 5.7233 -0.3463 0.6411 2.6082 2.1627 0.2922 -2.8085 0.1731 1.0636 6.7572 -1.1714 -0.3152 0.3041 3.5369 1.7212 0.5537 -0.1096 2.7668 6.3567 3.6553 0.4405 1.1524 3.1332 2.1722 2.6733 2.7181 2.3811 4.8574
-2.2306 0.2076 3.0781 1.5917 1.8568 2.3851 0.7493 2.7857 -2.0145 0.9029 2.9792 4.9805 -0.3302 0.0131 1.9766 1.5121 0.7701 0.0212 -0.1637 2.6504 6.0683 2.2709 0.4418 0.3886 -1.5549 0.6404 1.0701 0.9452 -1.0685 1.4194
-2.5700 -1.7018 1.2628 1.4571 1.4638 1.4950 -1.1571 3.0177 -1.3340 0.7363 3.3063 2.1190 1.1762 0.7203 1.3919 0.0406 3.5176 0.5487 -0.2548 2.0505 1.6822 3.6482 1.3017 0.4409 -3.4119 0.1444 0.5880 0.9529 -1.2018 -1.1482
-3.2963 -7.4730 0.5697 1.3801 1.0322 3.6856 -3.3293 2.4316 -1.1602 0.6766 4.9574 1.3770 1.2445 0.4191 -0.0793 -1.4712 4.4358 0.4953 -0.9286 -0.8796 -3.3955 3.8273 0.3657 -1.1173 -3.4545 -1.4821 -2.6091 -1.0050 -0.9039 -3.3065
-4.8472 -8.0733 -0.4725 1.9546 1.3705 5.2776 -4.2416 2.4973 -1.3051 0.9979 6.4372 -0.2825 0.0428 -0.1956 -0.0053 -3.1037 0.7563 -0.6249 -1.1774 -3.5776 -5.5412 0.5175 -1.3677 -3.1869 -3.7130 -2.2749 -5.1472 -2.7946 -0.2297 -3.8667
-2.1270 -2.4650 -0.5116 0.7431 1.3407 1.4067 -1.5961 1.3161 -1.1468 0.5274 2.9846 -2.3479 0.1662 0.5026 0.2915 -1.9237 -1.1721 -0.3541 0.0140 -2.1870 -6.1862 -0.6235 -0.5167 -1.8473 -2.4974 -0.4635 -4.2645 -1.8433 0.9401 -1.3438
3.3554 3.4214 0.8013 -1.2540 0.5792 -4.1858 3.8819 -0.3741 -0.6175 -0.4966 -3.2195 -0.4475 1.3952 1.9384 -0.5859 2.1849 0.2783 1.1881 1.3273 1.8464 -6.8327 1.0841 1.5559 2.2246 0.2360 0.3401 -3.1232 -1.4500 -0.3864 0.7250
2.7839 6.1856 0.2595 -0.7752 -0.0020 -5.2494 6.4901 0.0405 -0.3888 -0.7557 -5.3494 1.5552 0.8487 2.2264 -1.3435 3.4675 -1.2924 0.7188 1.0744 3.5328 -6.4853 -0.5276 0.6067 3.5385 -0.3225 -2.3927 -4.3312 -4.2279 -4.6919 -1.5275
-5.1649 5.3166 -2.3573 1.0658 -0.0646 -2.5404 2.4412 0.7726 -0.8162 -0.6335 -2.9065 -2.8518 -1.6590 1.0958 -1.4479 -1.0397 -6.0608 -1.9630 -0.3215 1.4656 -6.6161 -5.3847 -3.0298 -0.3542 -5.2954 -6.1413 -6.2498 -6.9428 -6.9891 -5.6839
-10.9535 1.4131 -3.5099 1.2124 -0.0623 -0.1633 -3.0991 -0.9159 -1.6208 -1.1564 -0.9906 -8.6876 -3.9341 -0.4007 -1.8238 -6.0049 -8.4051 -4.2084 -1.7375 -1.8651 -7.8448 -8.6632 -5.6345 -5.9089 -8.5149 -8.2486 -6.7944 -6.7001 -4.0236 -7.0570
-8.5116 -2.9570 -2.9726 0.0782 -0.1814 1.0734 -4.1524 -3.1394 -2.3818 -1.6534 -0.8849 -7.9249 -4.9459 -1.5782 -2.0798 -6.7368 -8.1511 -5.3159 -2.7978 -5.0062 -6.4949 -9.6215 -5.9561 -9.1270 -7.2374 -8.1942 -6.8034 -5.9421 -0.4355 -5.9467
-2.4785 -4.5266 -2.6305 -1.0333 -0.2315 2.0648 -3.3321 -3.4724 -2.7434 -1.1073 0.0598 -3.2130 -4.5188 -2.0330 -1.0947 -5.5781 -7.5687 -5.6390 -2.9229 -6.9514 -3.5567 -9.0591 -4.9426 -8.7830 -5.9122 -6.7660 -7.5109 -6.9771 -2.1425 -5.5907
2.3210 -2.7300 -0.6184 -2.5783 -0.1972 2.3235 -2.6903 -2.6501 -2.7133 -0.3009 0.9236 -0.4570 -2.7236 -1.6594 0.2119 -4.5932 -5.5334 -4.7154 -2.0398 -5.8446 -3.9645 -6.9727 -3.4786 -5.7846 -6.4746 -5.1460 -7.0181 -7.2597 -6.2697 -5.7342
6.4672 0.1392 3.9744 -3.7603 -0.1990 1.0310 1.6252 -1.1150 -2.4877 -0.5785 -0.8636 0.7138 -0.6583 -1.1910 -0.0418 -2.1852 -1.9812 -2.9570 -1.5272 -3.2155 -4.9085 -4.7019 -2.6202 -3.3565 -6.4472 -3.2144 -4.2788 -4.9789 -6.1396 -4.6927
7.5455 2.5419 5.8428 -2.6858 -0.2152 -1.0591 6.5174 1.5317 -1.9783 -1.5256 -2.7217 2.0419 0.5959 -1.3623 -1.0437 -0.2731 0.7002 -1.6146 -1.7500 -2.9279 -2.2990 -2.9847 -2.6733 -3.7247 -5.9253 -1.4416 -2.9032 -3.2382 -2.8831 -4.1091
1.6653 3.8313 2.0270 -0.4578 -0.1676 -1.7859 3.5217 3.1794 -1.5050 -1.7689 -1.5249 2.2410 0.8001 -1.9638 -0.6007 -2.6764 1.6556 -1.1224 -1.5861 -4.1771 -1.0931 -1.5699 -2.6647 -4.4465 -6.5317 -1.6158 -4.3468 -4.0625 -2.0711 -5.0093
-5.8939 2.0049 -2.2506 0.2990 -0.0273 -0.1314 -4.0773 1.7325 -1.6467 -1.2462 0.8095 0.3534 -0.1166 -2.2999 0.2959 -6.1842 0.9833 -1.2083 -1.3219 -3.5871 -3.7944 -1.6358 -2.3521 -3.0453 -6.8952 -2.4823 -4.6615 -4.9822 -3.9765 -5.4323
-7.8032 -2.3262 -3.1888 0.0530 -0.0078 1.6707 -6.4969 -0.5478 -1.7891 -0.9173 1.9989 -1.9214 -1.3039 -2.0749 -0.7394 -5.8011 -0.9561 -1.2911 -1.7873 -2.2542 -4.5626 -2.9969 -2.4018 -1.2690 -5.9714 -2.0285 -2.9536 -4.5032 -5.6699 -5.9021
-6.8386 -3.6051 -3.5763 0.9016 -0.3673 0.5390 -3.8001 -0.4460 -1.1359 -1.0597 1.5147 -2.5756 -0.9380 -1.6092 -2.5526 -3.9683 -1.6053 -0.7839 -1.9785 -2.5698 -2.2585 -2.5076 -2.5896 -0.7810 -5.6552 -2.0605 -2.4473 -4.0152 -6.2270 -7.9053
-7.1986 -0.2785 -5.0221 2.4917 -0.5926 -2.6986 -1.5013 1.1039 -0.4662 -1.0588 -0.7837 -1.8906 0.7695 -1.2305 -2.5405 -4.1360 0.3652 -0.0895 -1.2936 -3.1164 -1.2424 0.1582 -2.2596 -0.8923 -6.4743 -2.9162 -2.7459 -3.4623 -4.9534 -8.1747
-5.2339 1.3195 -5.0042 2.5910 -0.0979 -3.6689 -0.8908 0.9463 -0.7275 -0.2362 -2.0567 -0.8299 1.2000 -0.9214 -0.9690 -4.0842 1.6591 -0.2519 -0.8308 -2.3841 -1.5610 0.9821 -1.5667 -1.2691 -6.3497 -1.9760 -1.5498 -1.8827 -2.2143 -5.1042
1.2035 -1.5079 -2.1107 0.1952 0.3525 -0.8551 -0.7961 -1.3303 -1.5448 1.3806 0.2388 1.0646 -0.2939 -0.5245 0.6687 -1.5920 0.3268 -0.9256 -0.3972 -0.5585 -1.1514 -0.8489 -0.4452 -0.7124 -4.2457 -0.1806 -0.0541 -0.9035 -1.6862 -3.3012
6.1660 -3.0379 1.9578 -2.9284 0.0549 2.0600 -0.2547 -2.9679 -2.1336 2.7316 2.3254 2.9933 -1.2439 0.2484 1.8047 1.4188 -0.4626 -0.4087 1.2258 2.6401 0.6238 -1.0160 1.7185 2.4574 -0.8980 0.4599 0.6893 -1.0687 -2.8508 -3.1019
4.9691 0.0439 4.8916 -3.6887 -0.0692 2.2202 1.1820 -2.0218 -2.0040 2.7605 0.7486 2.4025 -0.4312 1.2916 1.8480 2.3593 0.9755 1.5105 2.9525 5.1923 4.8866 1.6814 4.1153 5.2854 2.3011 2.3078 2.7866 1.1007 0.7178 0.7460
1.9205 4.8373 6.0930 -1.3725 0.5921 0.9185 3.3865 0.8245 -0.8584 1.9850 -0.8975 0.9686 0.9321 1.7669 1.1625 1.6992 2.4349 3.2167 3.0809 3.6913 10.5558 3.7521 5.0944 3.9806 3.5943 6.6412 6.5633 6.0420 7.6626 5.9634
2.6719 7.9022 5.3288 1.4413 1.1264 -0.0032 5.1743 4.0574 0.8347 1.8201 0.7874 3.0219 2.2913 1.3042 1.7236 1.5183 3.3258 3.9434 2.4465 0.3585 13.0519 4.1613 4.7786 1.4139 2.3550 9.3891 8.4008 8.2790 8.8555 5.5492
3.9158 5.2960 1.0054 2.5945 1.0473 0.3570 2.9434 5.7968 1.6450 2.2354 3.9768 5.2201 3.1228 0.2729 3.4468 1.2385 3.9562 3.5183 1.9997 -0.2026 9.1416 3.6136 3.6360 1.1496 -0.2371 7.0139 6.0342 5.1274 3.7370 1.4967
-0.4102 -2.8872 -4.6916 2.4788 0.8356 1.8792 -3.7034 4.3103 0.7968 1.8211 5.9412 1.1712 1.6719 -1.1317 3.2603 -0.9737 2.6500 1.3508 0.7520 0.4762 0.8684 1.1353 0.7918 0.4037 -2.9732 1.2992 1.4368 0.3334 -0.5608 -0.5753
-6.6479 -5.8279 -5.1972 1.8224 0.3749 1.5743 -7.2537 0.8832 -0.4321 0.3303 4.4696 -4.3313 -1.0609 -2.1621 0.2760 -3.8416 0.5566 -1.0441 -1.1416 -1.0231 -4.2192 -1.0981 -2.6012 -2.7600 -4.9485 -2.8127 -1.8388 -1.8995 -1.4888 -1.8656
-6.5895 1.3651 -1.2318 0.5076 -0.5814 -1.8870 -4.0435 -1.2137 -0.3547 -0.6708 -0.8097 -3.2321 -1.3688 -1.6773 -2.2748 -5.1323 1.2707 -0.9706 -1.7081 -3.0126 -1.0770 0.5840 -3.3143 -4.6263 -4.8425 -2.3182 -1.7393 -0.8349 -0.0781 -3.6728
-1.3912 4.7617 0.0116 -0.6471 -0.9935 -3.0351 -0.9286 -1.2274 0.5118 -0.0214 -4.6918 0.5878 0.4738 -0.5428 -2.1792 -5.0039 3.2263 0.4859 -1.0964 -3.4802 3.3577 2.9013 -1.9811 -3.8730 -3.1837 0.0540 -0.1599 0.6929 1.9734 -3.3178
1.0976 -2.1442 -0.6739 -0.2325 -0.1464 1.4325 -1.4650 -0.4524 0.5446 1.4739 -2.8239 1.2366 0.9341 -0.5728 -1.0888 -4.1921 2.8660 0.5837 -1.1650 -3.9246 0.5744 1.3819 -1.9086 -3.6268 -2.5597 -0.3276 -0.8028 -0.6439 0.5852 -1.8149
0.1183 -4.4424 1.5177 0.7849 0.4917 4.6831 -0.7407 0.4733 -0.0214 2.0851 -0.0327 1.9136 0.0475 -1.0354 -0.6685 -2.6583 1.6748 0.2910 -1.2312 -4.0859 -3.7188 -0.7526 -2.1497 -3.6427 -2.7385 -2.0000 -2.1339 -2.5768 -3.3765 -1.9159
1.6993 3.3845 3.9431 0.0600 -0.2987 1.3294 3.0506 0.7804 -0.0960 1.2013 -1.8102 3.8011 -0.1396 -0.4721 -0.4622 -0.7132 1.2345 1.0474 0.0587 -2.1254 -1.4263 -0.6615 -0.4735 -1.6765 -1.4259 -0.3445 0.6080 -0.2280 -2.4821 -1.5348
5.1774 7.5395 3.7074 -1.7011 -1.0945 -2.6488 5.5380 -0.1170 -0.1922 0.0554 -4.2029 1.6957 -0.5021 -0.1023 -0.3169 0.5433 -0.6751 0.8446 0.8431 -0.3423 1.9711 -1.8517 0.3895 -0.0553 -0.3631 2.7660 4.9032 3.1943 1.4218 0.2194
3.1802 3.2017 2.3305 -1.6552 -0.5909 -1.0838 3.1978 -0.7875 -0.8539 0.0985 -1.7831 -3.9890 -2.0649 -0.9544 -0.2759 -0.2964 -4.3152 -1.2245 -0.1950 -0.9574 0.1558 -5.0034 -1.8706 -1.0829 -2.9600 1.9139 3.5246 0.9283 -1.4428 -0.4274
-3.9162 -1.4596 -1.3460 0.1151 0.0551 2.1159 -2.8095 -0.0844 -1.0746 0.9379 2.8586 -7.1372 -2.9778 -1.2945 0.8944 -3.0595 -6.2880 -2.4885 -0.5223 -0.5175 -3.2922 -5.7499 -3.8165 -1.7492 -7.5265 -2.6241 -2.5478 -3.9697 -7.7699 -3.9184
-7.9683 -3.4441 -6.9028 1.2427 -0.0724 1.4965 -7.1784 0.2635 -0.4576 1.1292 4.5375 -6.8358 -2.1284 -0.4430 3.1060 -4.6135 -5.0177 -1.7238 1.2136 2.7400 -6.3377 -3.8499 -2.9600 0.2143 -8.9972 -6.8857 -6.1864 -4.9616 -7.5193 -5.8873
-6.5173 -3.4363 -7.7274 1.3804 -0.1581 -1.2010 -5.5393 -1.0358 -0.0396 0.4244 2.4877 -6.3980 -1.2156 -0.2506 3.5653 -2.8284 -3.0108 -0.8792 2.2976 3.6239 -10.1482 -3.0872 -2.1443 1.2593 -5.9876 -8.6113 -5.9112 -4.1622 -4.3289 -4.3541
-3.0478 -0.6768 -3.0271 1.4477 -0.0373 -2.3405 -0.2193 -1.7900 -0.1422 -0.3860 -1.4099 -5.7226 -1.1585 -1.0375 0.9675 -0.6134 -2.5580 -0.8612 0.9768 -0.9048 -10.7204 -3.6460 -3.1262 -1.8526 -2.4984 -6.5751 -4.0243 -4.3841 -4.3756 -1.3967
0.3267 1.5429 -0.4662 1.1687 -0.3632 -2.0506 2.9312 -0.4570 -0.1151 -0.7726 -4.8897 -3.6318 -0.7258 -1.1314 -1.7275 -0.9968 -2.3540 -0.5395 -0.5343 -5.3539 -5.9730 -3.1879 -3.3348 -5.2373 -1.3571 -1.8637 -0.3106 -2.1214 -2.4974 0.9357
1.4228 -0.3266 -1.9136 0.6232 -0.5992 -1.3022 2.1211 0.5222 0.0780 -0.5250 -5.2889 -2.6435 0.2598 -0.3594 -1.2126 -1.9750 -0.9850 0.2262 0.0621 -4.3692 -1.0515 -1.7375 -1.3584 -3.8302 -0.3997 1.1077 3.5117 2.4024 3.3010 2.1384
-1.4285 -2.7282 -1.9495 0.9145 0.0668 0.2159 -0.3393 -0.6157 0.1374 0.2406 -1.7959 -3.3899 0.4778 0.1020 1.4514 -1.4458 0.3006 0.6235 1.7622 -0.8529 1.7376 -0.1076 0.7767 -0.4350 1.2575 1.0297 3.5120 3.5012 5.7920 2.1655
-4.3490 -1.1520 0.9818 1.5447 0.9038 1.7290 -2.2230 -2.0334 0.2005 0.9459 2.7686 -1.6889 -0.0479 0.1324 2.9664 -0.6733 0.9513 1.0930 2.6853 0.8421 3.7985 1.7898 1.8512 0.4647 1.2106 1.4962 1.3875 1.4302 3.4251 1.6551
-2.5280 1.8074 3.0592 0.6948 0.7982 1.3039 -2.2864 -2.7014 0.0428 1.1123 4.1865 2.1978 -0.3508 0.2204 2.8580 0.1753 1.5957 2.0379 2.9693 2.1725 2.3670 2.5954 2.3396 1.1307 0.2286 2.6141 1.0756 0.7079 0.8244 1.3298
1.1993 1.1782 1.6890 -0.9773 0.1154 -0.7646 -0.6515 -3.6104 -0.6792 0.7115 1.2119 2.3592 -0.8101 0.0496 2.2890 1.7533 0.8487 1.9047 2.7858 3.8598 -3.5618 0.4452 1.3925 2.8359 0.4732 0.3919 0.4700 -0.1691 -2.1831 0.3878
-0.2952 -1.1362 -1.4098 -0.4619 -0.0501 -1.9550 0.8074 -3.9481 -1.0898 0.0036 -2.6487 -1.5553 -1.9468 -0.6366 0.5594 1.8074 -2.3077 -0.1414 1.3121 2.2909 -6.7973 -3.1032 -1.1865 1.6259 0.3903 -3.4002 -2.0594 -3.0073 -5.2836 -0.8810
-6.3972 0.3881 -3.6110 2.1848 0.0765 -2.0600 0.7417 -2.4801 -0.3468 -0.5720 -3.8549 -3.8502 -2.5660 -0.8985 -2.1266 -0.6758 -4.9717 -1.8052 -0.0988 -1.5138 -3.1906 -4.3542 -2.0524 -1.2008 -0.2998 -2.6979 -1.6254 -2.2881 -2.7193 0.0521
-7.7040 3.3651 -4.7713 2.7714 -0.5342 -2.7029 -0.1295 -1.0549 0.5928 -0.6018 -3.3642 -2.6156 -1.5629 -0.0862 -2.7729 -2.3154 -4.1884 -1.1424 0.7071 -1.8665 0.9884 -2.5202 0.3035 -0.0171 0.4972 1.1436 2.3728 2.8018 3.3114 1.7485
-1.3914 0.6135 -4.3206 0.0598 -1.3137 -2.1804 -0.4425 -0.9911 0.6890 -0.0801 -2.7981 -1.1129 0.1516 0.6743 -0.9226 -1.4237 -1.3361 0.4352 1.8955 0.4822 0.7218 -0.1411 1.9332 2.6913 0.6210 2.0221 2.9667 3.5054 2.5671 -0.3531
3.3839 -5.6631 -0.9622 -1.7661 -0.9607 1.3064 -0.2987 -0.2239 0.4686 0.4498 -0.9835 -1.3940 1.4011 0.5176 0.3253 -0.4931 1.3394 1.5816 1.0798 0.7535 -0.3492 1.4948 1.0782 1.5262 -1.9988 1.0460 0.3807 -0.3794 -2.7571 -3.6434
1.9538 -6.7771 2.6238 -0.6372 -0.1076 3.8578 -0.8240 1.6387 0.5546 0.5206 1.9073 -1.2641 2.5079 0.5395 0.6300 -0.4448 4.4854 3.3224 0.6081 0.4339 1.7475 3.8648 1.6933 0.1431 -2.7884 2.7567 2.1941 0.9989 -1.3085 -1.7080
0.7900 -2.3172 3.2618 0.5256 0.1191 2.2406 -1.0876 1.7835 0.7454 0.4279 2.9999 1.7465 3.5643 1.3662 1.9385 0.4169 7.4217 5.2423 2.5806 2.3921 6.3435 6.6425 4.6606 2.8542 0.5211 5.1563 7.0295 6.7111 4.9282 2.9914
2.5240 1.5035 2.7063 0.1781 0.2601 0.0562 0.3874 0.1888 0.8625 0.4154 1.6095 5.4457 3.4790 1.7349 2.5592 1.5038 6.5169 4.8191 4.0534 3.2703 10.9175 6.5523 5.3933 4.8929 2.7486 5.0071 7.7064 7.2268 5.9788 4.1301
1.5189 2.5644 2.2713 0.1235 0.4953 0.4239 0.8513 -0.1457 0.7900 -0.1282 0.0142 5.8540 2.4384 1.1470 0.1211 0.4217 2.8431 2.5799 2.5708 0.6788 11.6059 3.9476 2.7783 2.2817 1.5438 4.1398 5.2250 3.2759 2.7944 2.6737
-2.5135 1.9534 0.0622 0.6523 -0.2419 0.7567 -2.2835 0.4970 0.2395 -1.3272 -0.6363 3.2656 1.9919 0.8465 -2.5239 -2.2518 1.8679 1.6452 0.4151 -1.4003 6.7506 3.0275 0.5906 -0.6696 0.0318 3.5138 4.0188 1.7190 1.5734 1.4514
-2.9010 0.7868 -2.5921 -0.0611 -1.6292 -0.8812 -4.8669 -0.4756 -0.5681 -2.1472 -1.2494 0.8378 2.0293 1.2083 -2.0283 -3.5888 3.0903 1.9644 0.1019 -0.5262 1.9324 3.4029 0.1502 -0.0738 -0.7279 1.9750 4.0416 2.4062 1.4841 -0.5643
0.5419 1.4065 -1.9670 -1.6034 -2.0008 -2.4361 -2.5139 -1.8451 -0.9555 -2.0853 -2.4207 -0.4289 1.4081 0.9905 -0.6022 -2.5553 2.1063 1.4324 0.7785 0.1340 2.1693 1.7006 -0.3447 1.7302 -1.0845 1.0122 3.7810 1.5517 -0.6702 -2.5623
1.4660 2.6981 0.7112 -1.6872 -1.0384 -2.2702 1.7513 -0.9469 -0.9711 -1.6378 -3.1960 -1.6076 0.4380 -0.2651 -1.0082 -0.4796 -0.0640 0.4132 0.7851 -1.1683 2.9643 -0.5703 -1.3338 1.9041 -0.2308 1.1368 1.9093 -1.1687 -3.8358 -2.2807
-1.0480 -1.0617 0.8311 -0.7799 0.1285 -0.5125 2.0479 0.3185 -1.4598 -1.0002 -2.1174 -2.9582 -0.4515 -1.3849 -1.0862 0.4941 -1.0013 -0.2988 0.3005 -1.6139 -0.9982 -1.2109 -2.0139 1.3872 0.4156 -0.2216 -1.3074 -3.2739 -5.2560 -1.8994
-3.9248 -8.6791 -2.9131 -1.0011 0.6126 2.3626 -3.3460 -1.0214 -2.4810 -0.0963 0.4855 -3.8276 -1.7321 -1.4569 1.3527 -1.3571 -2.1626 -1.5063 0.3279 0.6486 -5.9835 -2.1603 -2.2145 1.9920 -0.5731 -2.5984 -3.0149 -3.0401 -4.0216 -3.3818
-6.6294 -10.8125 -6.6330 -1.4035 0.5564 4.5209 -9.6749 -3.0002 -2.7965 0.6345 2.5046 -3.6374 -2.6285 -0.7619 3.5105 -4.4129 -3.1643 -2.4249 0.6966 3.1668 -6.0154 -3.4388 -1.8287 2.8620 -0.8996 -2.7412 -2.3861 -1.1940 -1.0370 -3.2509
-6.6743 -5.2884 -4.8028 -0.3253 0.6788 3.9412 -9.7005 -2.6374 -1.9516 0.6619 3.2990 -1.7508 -1.8440 0.0897 2.3828 -4.7077 -1.1469 -1.3596 0.3667 2.5517 -2.4536 -2.6589 -1.0060 1.5946 -0.2851 -0.5853 -0.7387 1.1281 2.1446 0.0713
-1.2419 0.4428 1.8129 0.1875 0.8908 1.3334 -3.7439 -1.6986 -1.4716 0.0357 3.8019 0.6606 -0.7424 0.5189 -0.0088 -2.4227 1.7362 0.0071 -0.6145 -0.7797 -1.1776 -1.6752 -1.0493 -1.2621 -1.9811 0.7067 0.7845 2.6810 3.1252 1.9694
4.2239 2.5118 5.0672 -1.4898 0.4921 -1.3849 0.2308 -2.6894 -2.2565 -0.7724 3.3661 0.4246 -1.3222 0.0786 -0.8270 -1.3113 0.6694 -0.8678 -1.4491 -3.2134 -3.1833 -3.3097 -2.6551 -2.5408 -5.0461 -0.8268 -0.3070 0.7002 -0.1840 -0.2467
3.6368 3.0512 1.7868 -2.4993 -0.0503 -3.3894 -0.3638 -3.6348 -2.7181 -1.3535 1.0381 -2.0336 -2.2651 -0.8675 -1.1444 -1.9361 -2.4493 -2.4971 -2.5333 -3.6865 -3.9291 -5.0218 -4.2925 -2.7184 -5.7331 -3.0243 -3.5380 -3.9234 -4.8460 -3.4594
0.9169 2.7338 -1.6704 -0.9393 0.0961 -4.1206 -0.6935 -2.3555 -1.6461 -1.5886 -1.5424 -2.6196 -1.5342 -1.2985 -2.2977 -2.3394 -2.3129 -2.3510 -4.1929 -4.4533 -2.3631 -3.9632 -4.1830 -4.5013 -4.5764 -2.3915 -4.0093 -4.8548 -4.4208 -4.1154
1.0677 1.4472 -1.0842 0.6867 0.5110 -3.3999 1.1812 -0.9160 -0.3380 -1.4198 -2.2575 -0.8147 -0.2125 -0.6833 -2.7976 -1.6164 -0.0996 -1.2670 -4.5888 -4.9563 -1.9242 -2.0815 -2.3731 -4.9462 -3.1092 0.0945 -2.1821 -1.0166 0.1268 -1.6276
1.1686 1.3878 0.9828 0.9476 0.7844 -2.4269 3.3018 -0.8428 0.0228 -0.7755 -1.3703 0.5274 0.1139 0.4894 -1.5564 0.7925 0.3814 -0.8793 -2.3126 -1.8747 -3.1699 -1.1278 -0.2069 -0.1435 -0.9209 0.5558 -3.0352 0.6825 0.2190 1.0322
-1.5296 2.2778 2.1352 1.4466 1.1024 -1.9585 4.5728 -0.1448 0.0144 -0.1093 -0.3071 0.1140 0.0926 1.1804 0.2187 3.6013 0.3870 -0.8196 0.3755 3.2201 -4.3017 -0.0975 0.8411 4.7964 0.1657 -0.7487 -4.4881 -1.2845 -4.2496 0.4078
-3.1803 0.8037 2.1534 1.9513 1.0147 -1.0100 3.6501 1.2393 -0.1030 -0.1682 0.5197 -1.9951 0.1123 0.7950 0.8356 3.4291 0.7803 -0.8625 0.4585 4.4266 -4.8793 0.0776 0.4539 3.4415 -0.4998 0.3303 -0.5754 0.3365 -2.5017 -0.3592
-0.8401 -1.3420 0.4828 0.6391 0.0463 -0.0175 0.2511 0.7175 -0.8132 -0.8914 0.5677 -4.2300 -0.6109 -0.0842 -0.2875 0.6928 -0.9455 -1.5642 -1.1382 1.2106 -4.2072 -2.2656 0.1468 -0.1335 1.4084 4.6045 6.8397 7.2749 7.0965 3.8566
2.3807 0.7031 -2.1842 -1.2113 -1.1496 -1.5879 -1.4619 -1.1085 -1.4976 -1.6250 -1.6884 -3.4835 -1.3560 -0.4400 -2.0219 -0.3822 -2.8165 -2.1060 -1.5429 -1.1218 -1.0001 -3.9938 1.0987 0.1115 5.7384 7.9908 10.5285 11.3240 12.3324 8.6982
4.1598 5.0068 -2.2838 -1.2750 -1.5853 -4.6595 1.1095 -1.7641 -1.2479 -1.9526 -4.3458 0.0597 -0.8362 -0.1769 -2.4683 1.2178 -0.8281 -1.5612 -0.6445 -0.7767 4.0320 -2.0155 2.2258 1.4693 6.2609 8.3768 9.2145 8.7962 8.3895 8.0772
5.7407 5.7071 1.0712 -0.6272 -1.2445 -4.3198 2.9497 -1.7586 -0.8033 -1.5029 -2.1158 2.6441 -0.0403 0.1609 -0.9256 2.8073 1.9912 -1.0580 0.3163 0.1802 6.9427 0.4888 2.4425 1.1703 3.4625 7.8235 7.5226 5.9233 4.0262 5.7425
5.1771 2.2298 2.1005 -0.7110 -1.0584 -0.5787 -0.5233 -2.1195 -1.1453 -0.3599 3.9540 2.7963 -0.1922 0.4532 1.7023 2.8286 1.6678 -1.3974 1.7324 2.5077 4.7036 0.9251 2.4334 2.7684 2.8525 6.4463 5.7518 5.4029 3.2851 5.1140
-0.1513 -1.4508 -1.5939 -0.2271 -1.2279 1.4775 -4.5204 -1.7672 -1.6686 0.3807 6.1544 1.7563 -0.4717 0.7776 3.7352 2.1388 0.5363 -1.4998 3.4383 6.6052 0.8679 1.6137 2.3927 6.2624 3.3716 2.5592 0.8481 2.8113 1.3463 2.8145
-5.2178 -2.1171 -2.2179 1.2205 -0.6636 1.0150 -2.6294 -0.3883 -1.4502 0.0999 3.1178 0.3125 -0.0699 1.0405 3.6534 1.9290 0.6810 -0.8709 3.6322 7.4973 -0.1904 2.9446 1.6668 6.1344 2.3841 -0.8448 -3.0415 -0.2483 -0.6759 0.1001
-4.6597 -0.2838 3.8809 1.7882 0.6902 1.1143 2.1467 0.2986 -0.6236 -0.3918 1.0272 -0.8195 0.4918 1.3303 1.7924 2.1038 0.7556 -0.2698 2.3135 3.1463 -0.9940 2.9844 1.1126 2.6725 2.2871 0.4434 0.0169 2.2013 2.3410 1.7761
-1.6155 0.7395 8.0993 0.9510 1.2145 1.4160 3.4905 -0.7691 0.1311 -0.4537 1.9039 -1.0458 0.4563 1.5756 0.5118 2.3930 0.4015 -0.3313 1.3872 0.1108 -3.1558 2.3244 1.4584 1.6507 2.8917 3.7195 4.8102 5.4173 4.5347 3.8997
0.6551 -0.3060 5.0168 -0.3571 0.3464 -0.0865 1.6663 -2.1545 0.3625 -0.5544 2.5476 -1.3768 -0.2188 1.3833 0.6692 2.8076 0.0161 -1.1664 0.9148 1.6911 -2.3343 1.8116 1.1879 2.6671 0.6065 4.1170 3.8208 1.7651 -0.8726 0.9700
3.5553 -1.7293 -0.3210 -1.7239 -0.7355 -2.0506 -0.8461 -2.0983 0.2697 -1.1198 1.9097 -2.7729 -0.6228 1.0108 0.2461 1.9776 -0.6690 -1.9178 -0.3788 1.8651 1.1083 1.1446 -0.1515 0.6301 -2.3235 3.3413 0.9670 -2.4170 -4.5341 -1.8636
5.7104 -1.6903 -3.4012 -2.3726 -1.2468 -2.8717 -3.4087 -1.4494 0.3147 -1.6855 1.1720 -3.9729 -0.1871 1.0494 -1.0301 -0.1747 -1.3311 -1.6315 -1.5354 -1.3495 1.2037 0.9606 -0.5311 -2.6496 -0.8904 4.8337 2.0917 0.5027 1.1222 0.5831
4.5779 1.5934 -4.0827 -1.4988 -1.3689 -3.8165 -3.6881 -1.7935 0.5426 -1.5883 0.3635 -2.8597 0.5345 1.3035 -0.4980 -0.4697 -1.0721 -0.7150 -0.4188 -1.6302 -0.4424 1.7047 0.9815 -1.2186 3.2487 6.9811 5.1214 4.8026 6.3633 3.5875
2.8166 7.0920 -2.3306 -0.1282 -1.1135 -4.8410 -1.0324 -2.2381 1.2128 -0.8686 -0.8939 1.1656 1.5844 1.6110 1.4898 1.3186 1.2527 0.5802 2.2794 1.8487 2.8374 3.3312 3.3645 3.1108 5.5814 8.5716 8.6178 6.0997 6.1127 4.1732
2.3599 8.6941 0.9501 0.7710 -0.1993 -3.0847 0.5814 -1.1089 2.6250 -0.0685 -1.3260 5.3360 3.2305 2.1706 1.5772 1.7250 5.1413 2.4354 3.6138 3.1093 7.2921 5.5088 5.1195 4.2764 5.7082 10.7238 12.5634 8.0957 7.1193 5.7935
-0.3873 3.1282 2.6475 1.8757 0.9264 0.7630 -0.1361 0.6915 3.5398 0.2052 0.1316 4.3265 3.8473 2.2250 0.1353 0.9788 6.6083 3.4013 2.6811 1.7633 4.4084 6.2964 4.7399 3.1765 4.6365 10.2495 10.8456 8.4531 7.3099 7.1064
-6.3166 -4.2060 0.7728 2.7817 1.1865 1.7892 -0.7305 0.4409 2.6116 -0.4721 0.9739 -2.1068 2.1817 1.0393 -0.2458 1.0302 3.6062 2.4110 1.3790 1.3405 -0.8998 4.9792 2.7029 3.8268 2.5458 4.9319 2.3519 2.9491 1.2265 4.0931
-9.3660 -6.9123 -2.5197 1.8167 0.4544 -0.3781 -1.4205 -2.3640 0.8756 -1.4938 -1.0403 -6.3007 -0.1302 -0.4198 -0.3934 0.2073 -0.2861 0.8085 0.9766 0.9253 0.3523 3.0456 1.3311 4.6006 0.9254 1.3260 -1.1752 -1.4581 -3.1142 0.6322
-6.1121 -5.0483 -3.5199 -0.4469 -0.3087 -1.3128 -3.1145 -4.8120 -0.1096 -1.6090 -2.8060 -4.8365 -1.3663 -1.1276 -1.4731 -1.9412 -2.4413 -0.5461 0.7000 -0.5950 1.5568 0.1646 0.5881 2.7844 0.9107 2.6252 4.1117 1.0224 0.6212 1.5197
-1.5110 -2.4694 -2.8896 -1.7061 -0.5810 -1.0358 -4.0445 -4.7994 -0.4809 -0.9428 -1.4858 -3.7167 -1.8570 -1.2364 -1.6975 -2.5381 -3.8637 -1.9176 0.0160 -1.2185 -5.0873 -3.4824 -1.1375 0.4922 0.9829 1.2934 5.4875 3.0190 3.6889 2.7086
-0.0865 -1.5489 -4.5528 -1.4686 -0.5336 -2.8534 -3.7791 -3.7064 -0.6403 -0.6546 0.1561 -5.7280 -2.1163 -0.7016 -0.3970 -1.4565 -4.4343 -2.5699 -0.2591 -1.0302 -10.3138 -4.5901 -2.6161 -0.2914 -0.0876 -4.4502 -1.3762 -0.7074 0.2500 -0.1588
0.0121 -1.4233 -7.7078 -0.7701 -0.4372 -5.3663 -3.5668 -3.0518 -0.3527 -0.8270 -0.6221 -6.5211 -1.7553 0.4166 0.4946 -1.2588 -3.4787 -1.9277 0.0689 -1.7187 -6.9664 -2.7026 -2.1795 -1.1840 -1.3210 -6.3142 -4.6815 -3.3674 -2.5058 -3.3993
0.7968 -0.3459 -7.2641 -0.0813 -0.6717 -5.1887 -2.6867 -2.1991 0.1366 -0.8875 -2.1162 -4.8047 -0.5838 0.9131 0.1871 -2.0878 -2.1509 -0.7646 -0.1130 -2.5518 -2.8876 -1.0172 -1.2495 -2.8222 -2.0793 -3.0647 -0.5773 -0.7450 -0.0210 -2.9503
1.6159 1.0268 -2.6759 0.1592 -1.2260 -2.8867 -0.6471 -1.1154 0.1708 -0.8147 -1.8242 -3.0293 0.6561 0.4171 -0.1485 -2.0318 -0.8974 0.5017 -0.6619 -2.0591 -0.5818 -0.0465 -0.5582 -2.7495 -2.0223 -0.0096 2.6952 2.2568 3.3413 -0.2487
1.9913 1.4595 1.7101 -0.1097 -1.2607 -0.5448 0.8864 -0.9552 -0.1151 -0.5042 0.2591 -0.4715 1.2311 0.3775 0.2237 -0.1692 0.9791 2.1331 0.2760 -0.0560 4.7004 1.6488 1.3741 0.5457 0.2835 2.9958 3.3759 2.8045 4.3721 2.3769
0.2556 2.0397 3.0542 0.7840 -0.3297 1.1464 0.8558 -0.7758 0.0808 0.2785 2.8050 3.0959 1.4851 1.2396 1.1475 2.2359 2.6957 3.3555 2.6268 2.6187 6.6066 3.1053 3.2987 4.5889 3.5368 5.0710 4.1765 2.0061 2.5221 3.2418
-4.3846 2.6845 0.6924 3.0149 0.5797 1.5981 -0.9359 1.0729 0.7984 0.9881 4.4448 2.8445 1.8683 1.7329 2.3166 2.7184 3.0671 3.0012 3.9331 4.2786 -0.0759 3.1301 2.5912 5.8607 4.1641 2.2359 2.7548 -0.1137 -1.5165 1.2536
-6.7747 1.2822 -3.9212 3.5306 0.4183 0.3029 -3.2125 2.7612 1.1725 0.7975 3.2177 -1.4755 1.9722 1.5753 2.5509 1.3207 2.9473 1.9836 3.3953 3.9414 -3.3382 2.9586 1.2415 4.5890 3.6585 -0.8005 0.9587 -0.9715 -2.0889 -0.3328
-2.8562 -0.4901 -5.6680 1.6788 -0.2518 -1.8174 -1.9244 1.9111 1.0271 -0.2243 -1.2736 -2.1613 1.6208 1.5069 0.6521 1.0915 3.1797 2.0258 2.2033 2.3525 3.5392 3.2103 1.9695 3.2139 5.2434 2.0641 4.2817 2.4138 3.3339 2.0027
2.7908 0.7850 -1.6340 0.2682 -0.3599 -3.0573 3.1317 0.0920 1.0361 -1.0841 -4.8446 1.5390 1.3082 1.5337 -1.5614 2.5945 2.8550 2.7183 0.7631 0.6303 8.3264 3.0168 2.5297 1.9422 6.0437 5.3682 7.2986 5.6470 6.9166 4.7623
5.2292 3.6412 3.5650 -0.3227 -0.1742 -3.0310 5.5523 -0.3283 1.2361 -1.0973 -3.7819 2.3895 1.3316 1.5870 -1.1891 3.0759 2.4415 3.0820 -0.5029 -0.4197 4.2232 3.3337 1.1521 0.6032 4.0125 4.0605 2.9102 4.3798 4.4075 3.9571
5.3369 5.0716 4.5616 -1.3084 -0.4859 -2.9064 2.9717 0.1481 1.1155 -0.9254 -1.0091 0.6462 1.6808 1.7647 0.4470 1.8673 3.4710 3.3125 -0.3907 -0.6597 -0.0535 4.8896 0.2493 0.8170 3.2093 2.6278 -1.4434 2.7027 2.2795 2.6538
4.0202 4.2033 2.2611 -1.6297 -1.1376 -2.7014 -0.0448 -0.0077 0.5627 -1.4123 -0.3419 0.4634 1.9556 1.4528 0.0587 0.4831 4.0263 2.9166 0.5130 -1.0417 0.7649 4.8894 0.6758 2.2114 4.3832 3.4722 1.7849 3.9943 3.7005 3.5122
1.2454 0.5841 0.3087 -1.0555 -1.5528 -0.8432 -1.7317 -1.2279 -0.3358 -1.9564 -0.0818 -0.1809 1.3803 0.5568 -1.2077 -0.6143 1.7177 1.3252 0.4966 -1.1838 2.7027 2.0250 0.6463 2.8576 3.6760 3.6285 5.9036 4.8666 3.9073 3.5201
-1.0002 -3.5083 -0.1316 -1.2170 -1.4994 2.0976 -3.5913 -2.7080 -1.1581 -1.6819 1.4242 -1.8068 0.1569 0.1253 0.0654 -0.9459 -0.9349 0.1967 0.1566 0.9033 3.0136 -0.2290 0.4089 3.6767 2.1586 2.9109 4.7548 3.1590 0.8558 1.5544
-1.3994 -4.3738 0.1991 -1.5111 -1.0274 3.3517 -4.2311 -3.0399 -0.9997 -0.9493 2.3010 -1.5122 -0.4518 0.3883 2.8151 0.1497 -0.9802 0.9023 0.5927 3.5126 2.0193 0.3393 0.8497 4.9689 2.9248 2.5797 2.2627 1.0518 -2.0550 0.4970
-0.5281 -3.5510 0.1623 -0.5896 -0.6369 2.4413 -2.9180 -1.8275 0.0507 -0.3550 2.6777 -0.8812 -0.3472 0.3679 3.1174 1.1624 -0.0825 1.6514 0.3955 2.4508 -0.3028 1.1752 0.2945 3.7160 2.8660 0.8429 0.5968 -0.7216 -3.2121 0.2786
-0.2553 -3.9948 -2.4700 0.1615 -0.9502 1.0246 -3.7802 -0.4606 0.5787 -0.0596 3.9043 -2.4049 -0.6794 -0.3443 0.9382 -0.2692 -0.6154 0.5133 -1.3244 -0.5116 -3.0836 -0.1801 -2.0573 0.3651 -1.0789 -3.4739 -2.6375 -3.3837 -4.6370 -1.4938
-2.9390 -4.3055 -8.1380 -0.4860 -1.7052 -0.6308 -8.2873 -0.6473 0.1146 -0.5396 3.1667 -4.5543 -1.4278 -1.0435 -0.8016 -3.7667 -2.0263 -1.1609 -2.8235 -0.7620 -4.0743 -2.3007 -3.4313 -0.7127 -4.8711 -7.1166 -4.8549 -5.2663 -6.1344 -3.7219
-5.5757 -3.2703 -11.2282 -1.5691 -2.1054 -2.9853 -9.6934 -2.4783 -0.2073 -2.0707 -1.7188 -5.0057 -1.6610 -1.1167 -2.0556 -6.0400 -2.9155 -1.2573 -3.2728 -0.7751 -2.8785 -2.8389 -2.1094 0.0341 -4.7606 -6.1649 -1.9831 -3.5479 -4.7126 -3.9132
-2.2084 -0.9066 -6.6335 -2.6897 -2.1245 -5.3585 -3.7477 -4.3010 0.2147 -3.6100 -6.8533 -3.1158 -1.4877 -0.8065 -3.9900 -4.9748 -2.7307 -0.3324 -3.4876 -4.1564 -1.8800 -1.9155 -0.5914 -1.2384 -2.9867 -2.3951 1.5722 -0.4878 -1.4262 -2.7483
3.6284 3.0240 0.5488 -4.0777 -2.2372 -6.7008 2.5176 -4.6388 0.7919 -3.8112 -8.4459 -1.5456 -1.1658 -0.2916 -4.6473 -2.3582 -1.3145 0.3286 -2.8098 -6.0305 -2.1035 -0.2735 -0.8308 -2.8058 -1.5795 -1.2059 -0.0648 -0.6350 -0.7711 -2.0732
3.2132 4.2664 1.8701 -4.1485 -2.2058 -6.1454 2.4890 -3.5582 1.0813 -2.8880 -7.4450 -3.2321 -0.4067 0.6245 -3.0836 -0.8226 0.4253 0.9054 -0.6551 -2.7294 -1.3423 1.8140 -1.2488 -1.1257 -0.1565 -3.0958 -3.2106 -2.9313 -2.7209 -2.0291
-2.6456 -1.0650 -1.6484 -1.4291 -1.4230 -3.4784 0.0365 -2.1663 0.9620 -2.1479 -5.3364 -4.9447 0.0138 1.2325 -2.4780 -0.8272 0.4129 1.1250 0.7232 -0.2406 1.3673 2.3076 -1.0429 0.6824 -0.5441 -4.0621 -2.4683 -3.3327 -3.6668 -2.5508
-7.0611 -6.6937 -3.6222 1.8749 -0.2441 -0.3841 -0.7169 -1.4920 0.4678 -2.0111 -2.8273 -2.9738 -0.4751 0.6710 -3.6001 -1.8139 -1.1259 0.4450 -0.0209 -1.8511 3.0024 0.2869 -1.3289 -0.7274 -3.1472 -2.7973 -0.0325 -1.6948 -2.7819 -3.3551
-7.1781 -5.9759 -3.1371 2.3524 0.2204 1.2373 -2.6501 -1.3294 0.2640 -1.7932 -1.1682 -0.3317 -0.1061 -0.2416 -3.0708 -3.0243 -0.5206 0.2710 -0.7265 -2.3575 0.5977 -0.4312 -1.4683 -1.9519 -3.1079 -0.6031 1.4429 0.3639 -0.7702 -2.0466
-3.7990 -3.2499 -2.4227 0.4092 -0.1715 2.1366 -6.5916 -0.5978 0.6240 -1.0719 0.3332 0.6648 1.7477 -0.5444 -0.7850 -3.3668 3.0033 1.3629 -0.1377 -0.5406 -3.4573 2.1279 -0.5042 -0.7125 0.8079 1.4883 2.6295 2.1543 1.8638 2.1756
-0.1392 -3.5497 -1.4946 -0.9436 -0.2147 3.2902 -7.8979 0.3835 0.7372 -0.1658 2.9592 1.4081 2.3874 -0.6727 0.3117 -2.1649 4.5250 1.8334 0.6474 -0.1230 -2.8963 3.7338 0.3398 0.8992 3.6245 2.1833 2.6877 2.4184 2.7860 5.3877
-0.0542 -4.1132 -1.6869 -0.6694 0.5083 2.6591 -5.5109 0.0213 0.4669 0.2736 3.7141 1.3713 1.0144 -0.8257 0.4359 -0.0810 2.0839 1.0444 1.3980 0.0975 3.4464 2.5168 0.6533 2.7635 4.2337 1.6677 2.0464 1.3064 1.1801 4.7927
-2.0656 -1.8712 -4.4408 0.0594 0.6543 -0.8584 -2.9648 -1.2083 0.5380 -0.2554 -0.5863 1.4844 0.4103 -0.6876 0.3341 0.7068 0.6389 0.5255 1.7637 1.3138 8.4332 2.1718 1.2416 4.2803 4.7101 2.2850 3.3865 0.9290 0.2562 2.7306
-0.8428 1.5366 -4.8651 0.2489 -0.2833 -3.7953 0.0425 -0.6429 0.7684 -1.2739 -6.1439 3.9553 1.1831 -0.6526 -1.6109 -0.2427 2.4184 0.4100 0.4890 -0.4332 7.0132 3.1658 1.2244 2.2815 3.6346 4.2031 5.2786 1.6717 1.4702 2.5398
3.8866 2.7540 0.4495 -0.3575 -0.9441 -3.2961 4.8365 1.6927 0.5512 -1.4688 -6.8903 4.1731 1.0699 -0.9624 -3.8703 -0.0475 3.1900 -0.0405 -1.1284 -4.3085 3.2504 2.3603 -0.1152 -1.2810 1.1064 4.7546 4.4922 2.1913 2.4964 4.6533
5.7925 1.1192 3.9261 -1.4445 -1.0172 -1.3151 5.5877 2.1152 0.0626 -0.5226 -3.3700 -1.3545 -0.2386 -1.1788 -2.4455 1.0276 1.1541 -0.4538 -0.7466 -4.0237 2.2214 0.5299 -1.2526 -1.3364 0.3510 2.9306 1.8683 1.5232 1.9108 5.7671
0.9140 -0.1596 -0.3613 -1.8733 -1.3538 -0.1448 -1.3579 -0.3061 -0.1391 0.3947 -0.5530 -5.0241 -1.1538 -1.1200 1.0529 -0.9142 -0.5457 -0.5563 0.8219 0.3221 3.1430 0.0822 -0.9122 1.0998 0.7630 0.9897 0.4963 0.3346 0.6129 2.8876
-5.1187 0.2286 -4.8391 -0.7529 -1.2114 0.7028 -6.9503 -1.7826 0.4468 0.3622 -0.2942 -1.3033 -0.8681 -0.7321 1.5671 -3.7053 0.0245 -0.2237 1.7612 2.8317 3.9956 0.5671 0.5054 2.0309 0.6049 1.5352 2.4364 1.3258 0.9455 -0.0295
-4.2575 -0.6319 -1.7933 0.8316 0.0756 1.6421 -3.5293 -0.7032 1.6186 -0.3579 -0.6082 3.6058 0.5143 -0.1511 -0.6494 -1.8497 2.1123 0.9441 1.8375 1.3403 4.4579 1.6710 1.8244 1.0430 1.9645 3.9433 6.1164 4.7185 4.4157 2.4613
1.0900 -3.6589 3.9532 1.1558 0.8940 2.6466 2.1479 0.3511 2.1773 -0.8039 0.5745 4.5669 1.9708 -0.0587 -1.2840 2.7660 4.1277 2.2148 1.6602 -0.3184 3.2007 3.3729 2.2395 1.1131 5.0993 4.9109 6.9692 5.6938 6.3056 6.2667
2.0422 -6.7387 4.8056 0.8208 0.4449 4.5133 2.4885 0.7522 1.6771 -0.2740 3.1825 4.2730 2.3927 -0.3885 0.8216 5.4393 4.5673 2.7536 2.5636 2.4335 -0.2286 3.9795 2.5695 5.2998 6.4931 3.4042 4.3966 2.2499 0.7180 4.7670
-1.9956 -8.1018 1.3788 1.3377 0.0082 5.8882 0.3916 2.4587 1.1195 0.4393 4.6215 4.1837 2.3635 -0.2631 2.8171 5.5002 3.9962 3.2057 4.4713 7.1718 -2.7650 3.3818 3.6607 10.3508 4.9715 1.9749 2.9407 -0.0560 -5.7398 0.9371
-4.1060 -6.0616 -2.0642 1.9158 -0.1060 3.4088 -0.2043 4.5435 1.0284 -0.0817 2.4004 2.8107 2.8094 0.2245 2.4055 3.3392 4.4151 3.7306 4.5718 6.8695 -2.2443 3.6837 4.3096 9.1297 3.1546 2.0719 4.2557 2.4854 -2.3144 0.3877
-1.8853 -1.2217 -3.6690 1.4638 -0.4021 -1.9204 0.3567 4.1762 1.0559 -1.2807 -1.5869 1.6783 3.1080 0.4837 0.4554 1.2954 5.5161 3.4661 2.2717 2.3112 0.1305 5.1359 3.8601 3.6348 3.7628 2.4118 4.5747 4.9842 5.4608 2.1738
0.9358 2.2272 -2.7349 1.1428 -0.2808 -4.8611 2.1789 2.0289 1.1364 -1.5672 -2.9654 2.3600 2.3892 0.6384 -1.1384 2.7192 4.7715 2.4565 0.3786 -0.0880 3.1800 5.7595 3.2433 1.1256 5.7406 2.2144 1.3476 2.9831 5.9777 3.6858
1.1466 2.6558 -0.4384 1.5201 0.2551 -4.2220 4.2062 0.6319 1.0718 -1.3732 -2.1148 1.9111 0.7701 0.6663 -2.0385 4.4456 1.4155 1.2888 -0.4878 -0.6382 5.8932 4.2341 2.1669 0.1782 5.1065 1.9926 -1.9432 0.1026 2.3129 4.3756
-0.3582 2.9403 -0.2061 1.0769 -0.1559 -3.7356 3.1269 -0.3465 0.5576 -1.9035 -2.8348 -1.3005 -0.7316 0.3086 -2.4121 1.8267 -1.7983 0.3514 -1.4812 -2.2637 6.8699 1.6709 0.6692 -2.6384 2.0017 2.4776 -0.2132 1.0707 2.8291 3.9181
-0.0862 4.0569 -1.4403 -0.4070 -1.3152 -4.0346 -0.2966 -1.7690 0.2596 -2.3943 -3.8123 -2.9143 -0.6396 0.0404 -1.8765 -1.6542 -1.7470 0.2511 -1.7314 -2.7622 6.8721 0.6972 0.8525 -3.9161 0.6064 4.1338 4.9365 4.5010 6.2115 3.3088
2.3163 3.7032 -0.0873 -1.0810 -1.1990 -2.1531 -1.6012 -1.6569 0.6708 -1.7012 -1.7759 0.2681 1.0966 0.3953 -0.5432 -1.4517 1.0007 0.8520 -0.7501 -0.8826 6.4678 1.9848 2.5895 -1.8635 1.2248 5.3330 7.0021 6.1679 7.1995 4.0333
2.7156 2.0070 3.0781 -0.1193 0.5792 1.0207 0.4150 0.9379 1.0667 -0.5118 0.1964 4.2443 2.5016 1.1103 1.2149 0.7949 3.5888 1.2978 0.2013 1.1215 4.3523 3.5864 3.3219 0.7361 2.0605 4.3358 5.5520 5.1990 5.1516 5.1924
0.3299 1.8993 5.1926 1.3811 2.1175 1.9282 3.6080 3.0200 1.1805 0.0490 -0.6504 5.0570 2.3877 1.5557 2.9723 3.2586 4.9314 1.7173 1.0119 2.7476 2.9092 4.5143 3.0787 2.8609 4.3197 3.7728 5.9798 4.4572 3.2366 5.6031
-0.5156 3.4287 7.2798 2.0927 2.0869 1.4038 5.9959 2.5369 1.3727 -0.0225 -0.6637 5.4229 1.6635 1.1457 3.2447 5.7172 5.2323 2.2491 1.8610 3.9807 5.4721 5.2073 3.0498 4.1567 7.2229 5.8620 7.9707 5.2170 3.4665 5.8633
1.1338 3.4271 8.6472 1.9045 1.0803 2.3677 5.9234 1.6350 1.3039 -0.1285 1.2138 7.3958 1.4157 0.0725 1.4733 5.7911 4.4295 1.9426 1.5336 3.2048 8.2445 5.1751 2.3008 3.1581 6.9993 7.4267 7.0023 5.5998 4.5292 6.8073
2.0666 0.4402 5.7356 2.0151 0.3294 4.2143 3.1667 2.1112 1.0128 0.2537 1.8141 7.2612 1.7879 -0.3543 0.2175 3.0709 3.3621 0.8810 0.3031 1.4529 7.4401 4.0295 0.8254 1.3131 4.1138 6.8187 4.7075 5.0060 4.4844 7.9867
1.5782 -3.0739 0.6180 3.1002 0.2578 4.9319 0.7024 2.6928 1.3436 0.9841 1.9829 4.2373 2.2444 0.2955 1.3159 1.6460 2.8517 0.2345 0.0217 1.9286 6.4688 2.6127 0.2707 1.5641 2.0768 6.6303 4.5305 4.3189 2.9583 7.3019
1.1931 -3.0397 -1.0103 4.1727 0.4568 4.2716 1.4432 3.0603 2.2385 1.1380 3.0192 3.1548 2.2932 0.7375 2.2598 2.7415 2.3387 0.0921 0.1237 3.4760 6.6704 1.4719 0.1052 2.3564 1.3684 6.9312 4.2705 3.3488 1.3311 4.3162
1.2729 0.4926 0.6940 4.4206 0.6657 2.9813 3.7814 4.4441 3.0285 0.5424 2.3623 4.1519 2.3653 0.5421 0.6245 3.1049 2.0345 0.2388 -0.8962 2.1410 5.0452 0.9379 -1.1225 0.5208 0.7037 5.9111 2.5346 2.2938 0.6360 2.5869
1.9828 2.4162 1.7086 4.1011 0.9364 1.8830 4.0172 5.3275 3.4303 0.2617 0.8886 2.9934 2.8450 0.5821 -1.3392 2.3380 2.7571 0.8518 -1.6459 -0.7727 3.1785 1.5919 -2.3775 -1.6767 0.1480 4.4529 1.7575 1.8106 -0.6759 3.8335
3.8056 1.7192 1.5192 3.1692 0.9186 1.0469 2.4305 3.6739 3.1411 0.5138 1.6752 1.9803 3.0204 0.6538 -1.0424 2.8647 3.6176 1.3470 -0.8257 -0.7102 3.5448 2.8464 -2.3595 -0.4372 1.0338 3.5411 1.5343 1.6811 -2.1207 5.4204
5.0391 3.5392 2.2208 2.0105 0.3968 -0.0303 2.6292 1.8288 2.4766 0.3491 1.8991 5.0435 2.6705 0.0397 -0.2891 4.0288 3.7714 1.2342 -0.1229 1.4135 3.2391 3.1479 -2.0367 2.0798 3.8359 2.3852 -0.2602 1.8640 -0.3991 5.9987
2.5306 7.6822 4.1536 2.2145 0.1781 -0.4804 4.9935 2.2137 2.3409 -0.2045 -0.8462 6.9271 2.3061 -0.6281 -1.0791 3.5200 3.4337 0.7005 -0.6297 1.3142 0.8318 1.7487 -2.4627 1.6602 5.6877 1.1725 -1.7279 2.1444 2.4041 5.6785
-2.0103 6.9969 5.6150 3.5492 0.7774 1.0847 5.9307 2.6632 2.3268 -0.2155 -1.8732 3.0084 1.3271 -0.6406 -1.4364 2.0628 1.8536 -0.6131 -1.1719 -0.5291 -1.2023 -0.8494 -2.8403 -1.0037 3.8952 1.3132 0.2506 2.3009 2.4632 4.0145
-2.4153 -0.1843 4.8230 3.6929 1.3987 3.7523 4.0297 1.4465 1.6275 0.4388 1.6253 -0.7340 -0.6320 -0.4700 0.3629 1.9915 -1.1207 -2.5720 -1.0977 -0.6790 -1.6202 -3.1762 -2.2400 -2.5121 1.1488 2.5098 3.8330 2.9516 2.4702 2.7943
1.0867 -6.5382 1.5976 2.8861 1.5921 5.0212 1.8593 0.6194 1.1808 1.2004 4.6264 0.7319 -1.6168 -0.3363 1.9820 2.9015 -2.7839 -3.4369 -0.9351 0.4541 -0.0892 -3.4766 -1.1870 -2.0896 0.7245 2.6334 3.7983 3.1981 3.8878 3.7103
1.8753 -5.2670 -1.7141 3.2856 1.7172 3.5477 1.6195 1.3802 1.8083 1.5070 2.1885 3.9836 -0.1214 0.3766 1.0565 2.3438 -0.9385 -2.2820 -0.9829 0.2684 2.3501 -1.4715 -0.3182 -1.2536 1.2943 1.6729 0.2990 2.1363 3.5051 4.7465
-0.2304 2.2574 -2.1666 3.8118 1.3642 0.3364 2.5984 1.9619 2.3517 0.9767 -2.3901 5.0642 1.7719 1.2817 -0.5453 0.9236 1.8298 -0.7402 -1.0114 -0.1482 2.2424 0.4295 0.3604 -0.2620 1.7176 1.5322 -1.1419 1.5819 1.7041 4.1410
-0.0683 7.8192 -0.3057 2.2981 0.2497 -1.6942 2.2847 1.0104 1.7878 0.3123 -1.4224 2.8059 1.2932 0.9696 0.2489 1.3385 0.8921 -0.7577 -0.8272 1.1121 -0.4504 -0.4598 0.3845 1.3251 2.6589 1.2863 -0.2209 1.2882 0.1703 2.0569
1.6079 5.3097 0.2402 0.5080 -0.3591 -0.4074 -0.7557 -0.7094 0.7799 0.9135 4.5995 -1.6365 -0.3991 -0.0143 2.8055 1.8637 -2.4640 -1.5761 -0.5959 1.3684 -1.4260 -2.4071 -0.0196 1.9279 2.4910 0.0950 -0.0752 -0.2821 -1.6240 -0.8032
1.4201 -1.3955 -1.7163 0.7264 -0.0052 2.2459 -4.1823 -1.7652 0.3219 2.2404 6.3899 -3.2572 -0.2013 0.5635 4.1051 -0.3587 -1.8566 -0.8560 -0.0946 -0.3251 0.9715 -1.0413 0.9720 1.0397 0.4713 1.4974 2.1391 0.3473 -1.0908 -1.5662
1.0916 -3.3567 -2.9248 1.3974 -0.1506 2.2406 -3.7685 -1.5683 0.6772 2.0900 1.6170 0.1292 1.5793 2.4625 3.3396 -1.5695 2.8567 1.3111 1.2327 0.9313 4.6985 2.9851 3.4243 1.6202 0.1260 5.7046 7.5848 4.6933 3.0068 1.2900
2.1907 1.0939 -0.3410 1.0086 -0.9516 -0.5607 1.2184 -0.6030 1.4839 0.5789 -2.4453 2.5981 2.3073 3.2823 1.8856 1.7639 5.1854 2.6926 2.4410 4.7432 7.7690 5.2512 4.6803 3.7725 2.7281 6.7432 8.7183 6.5198 4.9721 3.6824
1.8704 4.4240 3.2079 0.9552 -0.9504 -2.2577 5.8763 0.0918 1.7987 0.1008 -3.3273 0.5494 1.5217 2.6721 0.4443 4.6688 3.6201 2.5321 1.9615 4.2104 8.7344 5.2400 3.6630 3.7097 4.4942 3.7173 3.1129 3.4011 2.0814 2.9165
-0.7065 0.8828 1.3291 1.5758 -0.4200 -1.0120 4.3598 -0.3546 0.8881 0.9523 -4.0336 -0.9502 0.3007 2.0157 -0.6216 2.7693 1.8647 1.4882 0.6064 0.3128 6.9058 4.7236 2.0860 2.1129 3.8183 1.6532 -1.1345 0.5634 -1.5271 1.9201
-2.0067 -4.7265 -4.9040 1.3709 -0.5901 0.5259 -1.5872 -1.3118 -0.3769 1.2692 -3.9584 0.8997 -0.6174 1.6240 -0.6784 -0.1894 1.3210 0.3371 0.0946 -0.5883 4.0136 3.6534 1.2802 1.9519 2.9151 1.1929 -0.6846 0.1168 -2.9061 2.0652
-0.4158 -3.4870 -6.1188 0.6507 -0.8532 -0.3629 -3.4350 -1.0153 -0.3594 0.6562 -2.6284 2.1769 -0.3377 1.2212 -0.4261 -0.6991 1.9468 0.2719 -0.0568 0.1539 2.9422 2.7542 1.1808 0.9068 2.0579 0.6630 0.2174 0.7202 -1.0813 1.9367
1.8330 3.5499 0.1746 0.3165 -0.4399 -2.2507 0.8587 0.0826 0.7601 0.1653 -2.6847 1.6596 0.7923 0.9269 -0.6891 -0.1655 3.3812 1.1923 -0.7394 -0.5398 4.3132 3.2348 1.2421 -1.7973 0.1885 1.4753 0.5730 2.2420 2.1375 2.1074
2.8482 6.3913 5.4664 -0.3236 -0.1580 -1.9609 3.8252 -0.1571 1.2453 0.1080 -2.5810 1.3749 0.8243 0.5569 -0.2180 0.6817 3.1083 1.0747 -1.1582 0.1969 5.3728 3.4885 0.5530 -1.2622 -1.5223 2.6871 0.6422 2.0166 0.0832 2.1059
2.3391 1.7003 4.0560 -0.6625 -0.2579 0.2872 1.4207 -0.7718 0.6951 0.1813 1.4089 0.3318 -0.2143 -0.0709 1.6107 1.8789 0.7659 -0.3575 -0.9547 2.3946 2.7679 1.7054 -1.0499 1.8469 -1.9133 1.2326 -0.6830 -1.1413 -5.9726 -0.2494
0.5954 -3.6708 -0.5947 0.9721 0.0988 1.7323 -2.1329 0.4421 0.2429 0.1202 5.5180 -1.2148 -0.3158 -0.3961 2.5054 1.5257 0.1878 -0.9230 -1.0825 1.3607 -1.7866 -0.4338 -1.9879 1.2848 -0.8225 -0.1759 0.2297 -0.9759 -4.1873 -1.8534
-1.4042 -4.6879 -2.6496 3.1628 0.7574 1.8771 -2.1394 1.7130 0.1187 -0.3598 3.1688 0.1236 0.5298 -0.1898 0.9132 -0.0274 2.1194 -0.2426 -1.5375 -1.9548 -2.3459 -0.4631 -1.4467 -1.7060 2.1260 2.3269 4.5751 3.8159 4.5587 1.6717
-2.7646 -3.4502 -0.6507 3.0943 0.8911 2.3354 0.6641 0.4610 -0.5339 -0.9036 -2.7388 2.4799 0.3144 -0.3250 -0.7898 0.0473 2.2207 -0.6013 -1.4766 -1.9017 0.4675 0.1338 -1.3763 -1.5387 4.6355 4.6625 4.2082 4.1208 5.5522 5.7820
-2.7446 -3.1052 1.4848 0.9066 0.5071 3.0260 1.4828 -2.1315 -1.9085 -0.6887 -3.8548 1.0142 -1.9552 -1.3135 0.1942 0.8248 -1.2656 -3.0488 -1.4715 1.2986 -0.0601 -2.1211 -3.4437 -0.1292 2.6761 2.2500 -2.6326 -1.9178 -1.9111 4.0506
-0.5533 -3.6059 0.3646 -0.9424 0.0714 2.2862 -0.8704 -3.6473 -3.1835 -0.0714 -0.5488 -1.8617 -4.8290 -2.3902 1.8635 -0.4613 -4.8002 -5.7399 -2.8927 1.5704 -2.7034 -6.0163 -6.3047 -2.3872 -2.3505 -0.6939 -6.1408 -5.0451 -4.8235 -0.0390
2.3655 -3.5475 -1.8391 -0.7487 -0.0024 0.2624 -1.5961 -3.3077 -3.2361 -0.1879 -0.0505 -1.2866 -5.4759 -2.7001 0.0546 -2.3829 -5.1397 -6.3751 -5.3821 -3.0660 -1.2452 -6.9680 -7.7509 -6.6452 -4.5471 0.3264 -3.5043 -2.4207 -0.7510 -0.0864
3.1667 -2.6866 -2.1463 0.5248 0.4403 -0.7238 0.5411 -1.9036 -1.8614 -0.7553 -2.5634 0.2636 -3.6288 -2.2301 -3.7713 -2.2451 -3.7003 -5.0435 -6.7006 -6.9228 1.8092 -5.6643 -7.2635 -7.8129 -2.5171 1.8818 -1.1682 -0.2578 1.9422 2.4636
1.6130 -1.8913 -1.5699 0.9344 0.9227 0.3809 1.3437 -0.9785 -0.5337 -0.5618 -2.2908 -1.4546 -2.7295 -1.6373 -4.0768 -0.6745 -4.2982 -4.0866 -5.5910 -5.2480 1.4600 -6.7004 -5.8306 -5.1197 -0.7384 0.6378 -1.1069 -1.3457 -0.4019 3.1130
-0.3607 -1.2575 -1.0837 1.1918 1.0849 1.6908 1.4277 -0.8746 -0.1753 0.2797 0.3344 -3.5323 -3.6870 -1.4726 -0.7578 0.7748 -6.4839 -4.3196 -3.5527 -1.1233 0.7913 -8.5564 -4.3943 -2.0440 -1.5308 -0.2980 -1.6250 -2.6832 -3.5695 2.0529
-1.0893 0.6075 0.9741 2.6213 1.2408 1.5894 4.2617 -0.2735 0.4753 0.6969 0.5033 -1.1522 -2.6954 -1.1789 1.2184 1.8785 -4.9230 -3.4153 -2.2250 0.6007 3.3729 -5.7769 -2.5598 -0.6048 -1.6225 2.2856 -1.8380 -1.4518 -2.2950 2.0973
-0.4625 3.9085 4.4448 3.9554 1.6489 1.5869 6.6592 1.6033 2.0175 0.5652 -0.3458 3.5882 1.0972 -0.0105 0.7818 2.2578 1.0442 -0.6222 -1.2713 -0.0725 6.4517 -0.1702 0.0418 -0.2719 0.6997 6.1192 0.1320 1.5454 2.2949 3.7082
-0.9858 5.3428 5.8030 4.9392 2.3280 3.3217 5.2181 3.8969 3.0780 0.6626 2.0173 5.3955 3.5263 1.2460 1.0474 1.9105 4.4940 1.1113 -0.4097 -0.8427 6.8190 1.7485 1.9981 -0.5450 1.7320 7.0011 3.3512 2.9353 3.7293 4.4205
-3.8786 1.7364 3.0492 6.5055 2.8727 5.1199 3.0847 4.8044 2.9739 1.2295 4.9527 4.0197 2.9994 1.6907 2.6126 2.0861 2.7764 0.6886 0.0883 0.0922 4.2699 0.4367 2.4954 0.2767 0.3604 4.9326 3.9349 1.8975 0.8235 3.0344
-4.5640 -4.1065 -1.3416 6.0405 2.1517 5.1212 1.0544 3.1694 2.0626 1.6306 4.0687 3.1803 2.0150 1.8706 3.4209 2.3302 1.7519 0.4020 0.6085 2.5796 0.4138 0.9044 2.6151 3.1518 0.8925 3.3594 2.3095 1.1611 -0.5720 2.4904
0.8705 -5.3866 -2.6002 1.8765 0.1555 4.3554 -2.1472 0.4644 0.5255 1.3532 1.4434 4.6545 1.6504 2.0534 2.9652 1.1359 3.6726 0.5999 0.7082 3.2185 -1.0393 2.2289 2.3316 3.8357 3.5614 3.0899 1.3082 1.3841 1.3267 4.2971
8.3577 -0.3192 1.6921 -1.5847 -1.1408 3.2362 -0.5835 -0.4372 -0.5726 0.6371 -0.2055 6.9047 1.2817 1.7679 2.1577 0.8860 4.2462 -0.0458 -0.3775 0.9568 1.7516 1.2400 1.1667 0.3038 3.9853 2.6154 0.8270 1.1451 2.4807 4.6543
11.7193 5.4419 7.3837 -1.3347 -0.8528 0.8416 7.3280 0.5263 0.0902 0.1494 -1.5568 7.6120 1.2220 1.3685 1.6246 3.9524 2.8981 -0.5430 -1.0959 0.2187 5.2202 0.3044 0.7333 -1.5235 3.1275 2.9243 0.8357 1.5052 2.5609 2.5464
9.2118 6.7580 7.4258 0.1939 -0.3418 -0.5332 9.6361 0.9424 1.4997 0.3051 -1.5146 5.8389 1.3986 1.2654 1.6962 5.7956 2.1776 -0.0830 -0.3568 2.1718 6.4886 1.0475 1.3284 0.6403 4.4011 4.6306 2.1656 3.1232 3.9782 2.5173
2.2981 4.0565 1.6385 1.8837 -0.4092 1.3985 2.2874 0.8015 1.7006 0.6572 0.7451 2.9837 1.0408 1.0846 1.8814 2.7142 1.6759 -0.0706 -0.1118 2.5369 6.2613 0.8332 0.7429 1.5363 5.2081 4.2799 2.4113 3.0821 4.3755 4.6787
-3.8021 0.2845 -3.2426 4.4382 -0.5590 3.2388 -2.2540 1.9729 0.9878 0.5012 2.2355 1.8366 0.7369 1.0330 1.7368 0.3441 1.7656 -0.5097 -0.8155 1.4413 4.2497 0.3527 -0.5070 0.6500 3.8949 1.1251 -0.1200 0.8485 2.0776 4.8569
-3.2489 -1.7341 -2.9217 5.6635 -0.3978 2.5367 1.3218 3.5398 0.7955 0.1591 1.6012 3.1585 1.1537 1.5637 2.0919 3.2003 3.6830 -0.2109 -0.2664 2.4850 1.6902 1.6802 0.0100 1.8564 4.9868 0.6446 -0.9214 0.3504 1.6220 4.4072
1.2022 -0.9743 1.0232 3.9115 0.2294 2.8062 4.8576 3.5153 1.0585 0.2963 0.6493 4.9491 1.3577 1.9462 2.7225 6.0780 4.7700 0.0322 1.0708 3.8632 2.8626 2.1968 1.1823 3.4787 8.4328 4.1289 2.0275 1.7654 3.7654 5.9571
2.2901 -0.2551 4.4328 1.7803 0.9921 4.9591 4.9018 2.7662 0.8843 0.5532 0.5640 5.0476 0.6544 1.4599 2.3595 5.0456 2.7609 -0.7996 0.8308 3.0502 5.6774 0.3041 0.6805 2.8671 7.6002 5.1188 2.5539 0.9514 2.6398 5.5785
-0.0432 -1.4109 4.2405 1.4141 1.0201 4.3976 4.7885 2.3487 0.4828 0.2198 1.1179 1.7038 -0.4113 0.5799 1.5066 3.5329 -0.3368 -1.8162 -0.5540 2.5278 3.3102 -1.6785 -0.6863 2.1887 2.4573 2.1878 -0.7462 -1.2220 -0.9833 1.6038
-1.4024 -0.6795 1.8554 1.2187 0.2418 0.5260 4.4814 1.3012 0.6779 -0.6126 0.2886 -3.8983 -1.0939 -0.0957 0.6271 2.8941 -2.0064 -1.8755 -1.7213 2.7038 -1.2409 -2.5596 -1.3502 2.1311 0.0933 1.5627 -0.9362 -0.6868 -0.7921 -0.0850
-0.1012 2.3800 1.3939 -0.5427 -0.5275 -1.0990 2.8383 -0.3644 1.0381 -1.0841 -2.5007 -5.7634 -1.4090 -0.4901 -0.5817 1.2060 -2.0462 -1.3380 -2.7207 1.3120 0.2950 -3.0140 -1.7658 1.0754 1.3652 3.8801 2.1853 0.6818 0.6532 1.6028
2.7907 0.4342 2.4307 -2.3262 -0.7329 1.9378 1.6695 -1.3214 0.4799 -0.5761 -2.7657 -1.4376 -2.3424 -0.7533 -0.6851 0.1460 -2.5307 -1.7662 -3.2349 0.3510 4.6486 -4.1054 -2.9481 0.2217 0.8504 3.6993 1.7180 -0.9222 -2.3057 0.6874
3.8080 -6.0525 0.9606 -1.2934 -0.1749 4.9868 1.5505 -1.1031 -0.2457 0.2228 0.9214 3.6704 -3.5115 -1.0224 0.5359 1.4176 -3.8789 -3.1735 -3.0145 1.4865 3.7847 -5.5519 -4.3214 0.4401 -0.9841 1.3953 -1.9064 -3.1969 -4.9035 -2.0413
1.2020 -4.9029 -1.2082 1.9827 1.0425 3.8142 1.7805 0.3866 0.5010 0.3161 2.3094 5.4421 -2.4031 -0.9862 0.4955 2.5698 -2.4854 -3.0139 -2.7824 1.4014 1.1444 -4.6354 -4.2357 -0.1362 1.2701 1.6289 -2.2501 -1.9941 -1.0857 -0.0436
-0.4691 5.4919 1.8799 3.6843 2.3601 0.9106 3.7979 2.4931 1.8908 0.1079 -0.8935 4.9177 0.7663 -0.4347 -0.9154 2.4278 1.6387 -0.7763 -2.7240 -1.2514 3.6005 -1.4526 -2.9281 -1.8830 6.2670 3.8528 0.4941 1.3245 4.7340 5.4832
2.3909 11.4744 8.6751 2.2502 3.1177 0.6482 7.6674 3.1198 1.7734 0.4540 -3.2246 3.7759 2.1232 -0.1148 -1.1269 2.5904 2.8377 0.3817 -2.5810 -3.3434 7.0339 -0.3733 -2.5657 -3.2177 7.2915 4.0572 0.1014 1.6436 5.6853 7.6796
6.5167 7.4569 10.7674 -0.2148 2.7333 2.2677 9.1398 1.9184 0.3912 1.1807 -2.0230 3.2557 0.6959 -0.4079 0.4837 3.2269 0.5276 -0.7295 -2.0975 -2.2562 4.4620 -2.2517 -3.1913 -2.7366 3.8283 1.6697 -3.7929 -1.9907 1.8166 4.6891
8.6867 1.3137 6.0321 -1.6264 1.3214 2.7838 6.0226 1.1117 -0.5841 1.6119 0.3181 4.0575 -0.3056 -0.5181 2.3187 3.5649 -0.2233 -1.6901 -0.9456 1.0591 -0.3676 -3.1779 -2.7928 -0.4580 1.4666 -0.1285 -4.4837 -4.2718 -1.9330 0.3707
8.6746 -1.1242 2.2211 -1.2382 0.3737 2.5955 3.0137 1.5683 -0.9897 1.3294 1.6372 5.6133 0.5268 -0.3276 2.4442 3.5368 1.1848 -1.3040 -0.3341 2.1491 0.3304 -1.5050 -1.7221 0.6329 2.1180 0.7385 -1.1873 -2.6854 -1.8198 -0.9103
5.4019 0.2482 4.1599 0.5640 0.9452 3.2469 3.9108 2.3771 -1.2824 0.5915 1.2770 6.0613 1.2428 -0.5057 0.9812 2.7053 1.3017 -0.8432 -1.5380 -0.7659 4.0608 0.0443 -1.9559 -1.2970 2.8386 1.9338 -1.0865 -1.8399 0.2625 0.9745
-0.0793 2.5883 5.9695 1.9330 1.8436 4.3688 4.4157 3.0961 -1.0369 0.3900 0.8012 2.7455 0.6493 -0.6077 0.8967 1.0631 -0.4749 -1.0804 -2.4840 -2.3392 2.4942 -1.3892 -2.9426 -2.6005 2.3017 0.8190 -4.2568 -3.4196 0.3721 2.0487
-2.7237 0.9625 3.3922 1.7304 1.7454 5.6596 1.0715 3.2157 -0.2658 1.0332 2.5841 -2.4555 -0.1707 -0.0576 2.9205 0.0206 -1.8747 -1.4242 -1.2403 0.6007 -3.0067 -4.3282 -2.9310 -0.8890 1.2430 -0.5001 -3.4004 -3.1632 -0.6930 0.6975
-0.7176 -4.0376 1.8522 1.0206 1.0677 6.8857 -1.1377 2.5843 0.0525 1.4949 5.1062 -2.5360 -0.1852 0.2939 3.7664 0.4980 -0.9168 -1.2373 -0.0294 3.0985 -4.7081 -4.2779 -2.3141 0.5946 -0.4816 -0.2309 -0.5460 -1.7827 -1.6413 -1.0705
2.6446 -5.2017 3.5808 0.8614 0.3150 6.0585 1.3192 2.6169 -0.1791 1.2486 4.4495 3.2113 0.6475 0.1578 2.5587 2.0295 2.5391 -0.4825 -0.5293 2.3314 -3.9341 -0.6204 -1.9076 0.4846 -1.6396 -0.8387 -2.4194 -3.6791 -4.6462 -2.4461
4.8783 0.8304 4.1617 1.4406 -0.3611 2.3118 5.0271 3.6721 0.0711 0.8523 0.4653 7.6878 2.2010 0.6636 1.6394 3.5382 6.0575 0.5712 -0.9278 1.3850 -5.2327 2.3068 -1.0628 0.6384 0.1128 -1.4107 -3.4582 -4.9561 -6.5512 -2.5452
5.5989 9.9420 5.0262 2.5225 -0.1819 -1.3265 7.8349 3.8743 0.7257 0.3731 -3.1408 8.1868 3.4993 1.6371 0.9253 3.6194 6.4717 1.4305 -0.5795 0.5033 -2.6951 2.3033 0.1242 -0.2563 3.0700 2.7803 2.9487 0.3468 -0.1725 1.0394
5.6134 14.0752 8.9247 2.4191 0.6063 -1.5252 9.8520 2.4855 0.4100 -0.2990 -3.8095 6.9830 2.9140 1.6426 -0.5417 2.5321 3.5137 1.3945 -0.5602 -1.5998 7.5489 1.3492 0.6890 -2.6916 4.1911 8.9735 8.5070 6.9510 9.8159 6.4271
6.4161 8.6218 10.0067 0.1448 0.2764 0.7753 9.5768 1.0817 -0.7532 -0.5185 -2.6908 4.1874 0.9317 0.9501 -1.0646 2.7723 -0.0642 0.3689 -0.1753 -1.6520 14.4443 0.5697 1.0611 -1.9472 4.3674 9.4939 6.0461 6.7627 10.5350 7.6686
5.8513 1.6098 5.3074 -1.5301 -1.2071 1.6887 7.2040 1.0759 -0.8930 -0.3541 -2.5751 0.6490 -0.1353 0.6705 -0.1590 3.8955 -1.5453 -0.7015 0.9519 1.4109 10.2641 -0.3159 1.4820 2.3323 3.9315 5.2237 2.3204 1.9155 1.6468 3.4438
0.7692 2.4680 0.7236 -0.3751 -1.8064 0.4645 3.9316 1.7936 0.2982 -0.4342 -3.3149 0.0523 0.1475 0.4361 0.2848 1.9207 -0.3362 -1.0134 1.1239 2.5221 3.7729 -0.3014 0.6985 3.3704 1.1710 2.2206 1.3717 -1.7622 -5.2324 -1.6192
-3.9098 3.3456 -1.5519 1.2027 -0.7174 1.3797 -1.4055 1.3711 1.0783 0.0745 -1.4927 2.3159 0.3370 -0.0064 0.3694 -2.8049 1.4065 -0.9549 0.1730 -0.4162 2.7106 0.4230 -1.0628 -0.5487 -1.6805 0.8599 -1.5536 -3.4320 -4.5119 -3.3368
-1.8810 -4.6069 -3.6093 0.8891 0.7647 5.7671 -6.9262 -0.1337 0.8143 1.5227 2.6913 2.8711 0.3611 0.2384 0.9679 -5.1355 1.2876 -1.1171 -0.2301 -3.2423 3.5299 0.0179 -1.8249 -3.9361 -1.4283 -0.1439 -4.9263 -3.3770 -0.2009 -1.2037
3.2754 -10.2175 -2.9085 -0.2521 1.3387 7.7597 -6.9450 -0.6050 0.6184 2.0127 4.2183 1.0992 1.2610 0.9175 0.9534 -3.2066 0.5300 -1.0703 0.1546 -2.5991 3.3773 -0.2845 -1.1632 -3.9590 0.1583 0.8380 -2.7941 -0.9726 2.9132 1.9431
6.6847 -3.8265 2.5373 -1.2132 1.0971 4.7865 -1.2526 0.4039 0.9510 1.1943 2.2956 1.1886 2.2734 0.6045 0.4465 0.3832 0.8352 -0.6034 0.4248 -0.0550 4.0111 0.8268 -0.5294 -2.4955 1.0987 3.1212 1.9312 1.9221 3.3724 3.1631
9.1355 4.7536 8.2113 -1.7517 0.9638 2.4289 4.7105 1.3760 1.1308 1.1860 0.8517 3.0645 1.8436 -0.5089 1.2094 2.9885 0.2339 -0.7335 0.4034 1.0531 4.4587 0.1492 -1.0580 -1.5591 2.0491 4.3035 3.4445 2.8721 2.4435 3.1490
8.6874 7.6555 9.7022 -0.4867 1.3211 2.7655 7.8753 2.0566 1.1307 2.0036 0.0458 2.8556 1.2019 -0.8216 2.4855 3.2485 -1.3050 -1.4639 0.4374 0.3987 1.5256 -2.5767 -2.3978 -1.7300 1.9450 4.0093 2.1251 1.8271 1.4350 2.9103
3.3048 8.0514 7.3070 2.5952 1.8185 2.0282 7.9516 2.8936 1.6676 1.8522 -1.5175 1.3415 2.3661 -0.1568 2.1977 1.5595 -0.2360 -1.3011 0.4421 -0.5185 -3.3420 -2.5442 -3.1933 -2.8402 -0.3399 1.7676 -0.3766 -0.4196 -0.0552 1.1115
-0.1004 5.3198 4.2393 4.0169 2.1139 1.0893 5.6664 2.6222 2.3261 1.1216 -1.9348 0.9962 3.5172 0.3384 0.8546 0.2552 1.8868 -0.5394 -0.0755 -1.6541 -3.9281 -0.4295 -2.8432 -4.2288 -2.1653 -1.0787 -2.4105 -2.3167 -1.3117 -0.6249
3.6270 -0.3622 3.7124 1.5412 1.8765 2.8368 3.5219 0.7094 1.9617 0.9844 -1.1079 1.2041 2.2325 0.5662 0.2258 0.4362 0.7645 -0.9332 -0.9230 -2.2418 0.2119 -0.8690 -2.5023 -4.6707 -1.9430 -0.8153 -1.8507 -2.7601 -1.6458 0.3644
6.6086 -1.2535 3.8482 -1.5206 0.9267 4.3569 1.2239 -0.5954 0.9691 0.8145 -0.6477 2.1949 0.3361 0.8958 0.2862 -0.3940 -1.3295 -2.3123 -1.4461 -1.3217 0.4473 -2.5815 -3.6401 -4.0621 -2.5905 0.2490 -2.5868 -4.3730 -4.1675 0.2064
1.7297 2.2485 0.2788 -1.3258 0.0232 3.5441 -3.7779 -0.6409 0.4956 0.2304 0.8648 3.3600 -0.4481 0.4925 -0.0166 -3.7262 -2.0310 -3.6150 -1.7657 -1.3226 -4.5212 -3.4254 -5.6942 -4.0529 -4.8636 -2.5900 -7.5459 -7.9423 -8.8163 -4.2165
-2.9058 1.8056 -3.4654 0.2526 0.1238 3.0555 -6.4788 -1.3505 0.4828 0.1732 2.7228 1.7762 -1.3532 -0.6622 -0.4660 -5.1312 -4.1041 -4.5478 -1.6765 -3.1947 -3.7782 -5.2834 -6.0518 -4.2482 -4.1949 -4.2083 -8.0015 -7.6808 -8.7130 -6.7310
2.3188 -0.3743 -0.6276 -0.2352 0.7679 2.9984 -0.4046 -1.6600 0.9507 0.8043 1.0336 -0.2010 -1.2894 -0.6115 -0.1976 -1.0038 -5.2952 -3.8835 -0.2630 -3.2353 3.8173 -6.1002 -3.4598 -2.2901 0.3954 0.4958 0.3159 -1.9447 -2.9095 -3.0777
10.8711 2.0176 5.8126 -1.5468 1.0354 1.7385 7.9251 0.8718 2.6506 1.4445 -2.1954 1.9203 1.9009 0.9763 0.4706 3.8199 -0.7042 -0.9646 1.4396 -0.4663 5.5561 -2.1786 -0.3066 0.4972 2.6329 3.6341 5.7801 1.8996 0.7754 0.8900
11.9772 4.7061 8.7174 -0.7825 1.4230 1.4730 9.4908 4.0696 4.7650 2.1073 -1.4901 5.5117 5.1455 1.9661 0.9934 4.5312 4.7246 1.6389 1.3810 1.7104 -0.0607 2.2426 0.7834 0.7003 0.4326 0.1767 2.5261 0.9297 0.6873 1.2170
8.0741 3.5861 7.6900 1.7227 2.5355 3.4262 7.4656 5.0207 5.4153 3.0018 1.6407 7.1808 5.0940 1.9128 1.8368 4.1927 5.0683 2.2460 0.5824 2.2356 -0.4809 2.8224 1.0006 -0.4901 0.4313 -0.6914 0.0128 0.8074 2.5250 2.0853
5.3168 2.7226 5.2196 3.7522 3.3808 4.6768 6.5899 4.9881 4.6135 3.6560 1.9958 7.8696 4.1953 2.1339 2.9536 5.0337 4.3338 2.8169 1.1117 2.5411 6.5700 3.0256 2.5638 0.3597 5.1372 4.9073 2.8288 3.3893 6.0597 5.2033
2.1804 2.7385 2.6350 4.1419 3.0990 4.4889 4.8685 4.9306 3.3968 3.5558 0.0946 6.7670 4.0923 2.0848 3.2017 4.2130 4.6969 3.6365 1.5657 2.2418 10.7576 4.0917 4.0627 2.0104 8.2395 7.3485 5.1584 4.4549 6.6351 6.4029
-1.6891 0.8110 2.6323 3.4306 2.5657 4.9155 3.0185 3.5948 1.9498 2.9430 0.1610 3.9109 2.3846 0.8874 2.6000 2.2366 1.9545 2.4041 0.3357 0.9219 8.8956 2.4005 3.2193 1.3516 6.2954 3.6095 4.8383 3.1861 5.0427 4.3026
-2.1032 0.2481 5.5209 2.5648 2.6702 5.0162 3.9976 1.8413 0.8358 2.5645 2.5055 3.1019 -0.0919 0.2044 2.5657 2.4908 -1.8357 0.2164 -0.1878 1.1017 6.4370 -0.1536 1.5238 0.3032 2.8067 1.4263 3.5575 1.8492 3.6439 1.9387
-0.1347 3.1328 6.3028 1.3364 2.7033 2.8780 4.2117 1.2690 0.7150 2.5456 3.4325 3.2958 0.0038 1.0196 2.8515 3.2836 -0.8272 0.0470 1.4790 3.4982 4.8018 1.0324 1.0946 1.4938 1.0114 1.8557 -0.3087 -0.3143 1.3078 0.8151
-0.0724 4.3067 3.4276 -0.3049 1.8330 0.5077 0.9211 0.5342 0.6690 2.2344 1.3757 0.9607 0.9536 1.4364 1.8468 1.6859 2.0896 0.7986 2.3150 3.8063 2.4508 3.1408 0.8289 1.8681 1.2925 0.1168 -5.3338 -3.3293 -1.0628 0.3288
0.4394 2.1375 1.4377 -1.0491 0.8176 0.3759 -0.4420 -0.9590 0.1228 1.7989 -0.9838 0.0323 -0.3727 0.7412 0.6537 0.4212 1.3022 0.3353 1.1758 0.9405 1.2769 1.3368 -0.0851 -0.2068 2.9229 -1.3546 -4.2905 -3.0743 -0.1817 0.9076
4.5893 0.6004 1.4225 -0.7234 0.8360 1.5334 2.2948 -0.8718 0.2335 2.2167 -1.5173 3.2304 -1.7157 0.6839 1.4871 1.8849 -0.9533 -0.1466 1.2576 0.0134 2.3070 -2.0467 -0.1001 -0.6434 4.5429 1.3025 3.0049 1.1142 3.1521 2.9462
7.0665 -0.0341 1.4700 -0.5270 1.7120 2.8382 3.6876 0.7714 1.2004 3.0971 -1.0727 4.2725 -0.5863 1.4973 2.6360 3.0123 -0.8694 0.1955 2.9660 1.4798 1.8552 -2.7385 0.6585 0.9411 5.0144 3.4184 6.4390 2.8562 4.2258 3.9999
3.3532 -2.2123 2.4947 -0.2124 2.5088 4.7110 1.8661 0.8477 1.6429 3.2994 0.3271 1.0779 0.7422 1.6623 1.7557 1.9532 -0.0588 0.0717 3.2105 0.5699 -1.8131 -1.5861 0.2007 0.6751 4.0402 0.3734 1.1881 -1.5411 0.2664 1.1136
-0.9892 -4.4884 2.8650 0.6529 2.8164 5.9150 -0.7978 -0.7091 1.3869 3.2578 3.0032 -0.8572 0.7753 1.1115 0.7233 0.4214 -0.2958 -0.2593 2.1319 -1.4947 -3.8762 -0.7995 -1.0351 -0.7801 1.9483 -2.8566 -4.5831 -5.9695 -4.3468 -3.4882
-0.8181 -3.4379 -0.3015 0.7328 2.5376 4.1787 -3.2113 -0.7859 1.3582 3.4134 3.4705 -1.7148 1.4133 0.7655 1.0097 -1.1575 -0.1478 0.3334 1.9876 -0.5847 -2.0235 -0.0697 -1.1385 -1.2240 -0.0165 -1.1542 -3.5755 -4.0442 -2.5671 -4.2701
1.1950 0.0182 -2.2506 -0.4749 1.6131 0.5426 -2.6832 0.7357 1.1996 2.6169 -0.2408 -4.2340 2.7200 0.6676 0.8798 -1.8722 0.8325 0.9009 2.3280 1.3241 -1.8557 0.9798 -0.3830 -1.1838 -0.3678 0.5402 -0.7148 -0.2055 2.5024 -1.2958
3.0315 1.3945 0.7780 -1.6523 0.6768 -1.8281 1.8101 1.0449 0.2692 0.8872 -3.1471 -4.2104 2.6050 0.6135 0.2206 0.3497 1.1533 0.6978 2.2972 1.3610 -4.2357 1.6857 0.1120 -0.0876 0.8643 -1.8566 -1.2859 -0.4697 2.8355 0.5920
5.1952 0.3605 3.2812 -2.2662 0.5341 -2.0219 4.3534 0.0011 -0.4425 -0.0059 -2.2794 -0.1393 1.5989 0.5693 0.1801 2.6962 1.0587 0.9583 2.5860 0.7545 -1.7355 2.0515 0.6079 1.6736 2.2902 -1.9972 -0.1500 -0.6460 1.7955 0.7752
5.9227 0.9816 3.3569 -2.6116 0.9184 -0.9175 2.6497 -0.4018 -0.1974 0.2739 -1.7029 2.2023 1.6446 0.3109 -0.0923 1.5236 1.9923 1.9514 2.9306 0.3584 5.2076 2.2099 1.2737 1.2233 2.8718 3.5432 5.6586 2.9435 4.7274 1.5590
5.0073 3.0439 5.6848 -2.0565 1.4002 1.2029 2.7035 0.0598 0.0925 0.9033 -2.2952 2.3918 2.1135 -0.0967 -0.4507 0.0624 2.6902 2.2029 2.4873 -0.2356 7.8845 1.4735 1.1522 -0.8083 2.1987 7.4045 8.7471 4.7437 6.1150 2.0874
4.1299 2.3107 7.5458 -0.2038 2.2393 3.7387 4.7767 1.3256 0.0915 2.0021 -0.4107 4.5400 1.8568 -0.2428 0.5957 0.9961 1.3398 1.4263 1.8202 -0.2281 5.2745 0.5370 0.0595 -1.6726 0.4653 4.9151 4.4124 1.8076 2.8696 0.8936
2.1741 -0.2887 2.9784 1.3492 2.9098 4.3750 2.9745 3.4274 0.4734 3.2937 1.9461 5.2804 1.6201 0.1432 1.9861 1.4800 -0.3484 0.8620 1.9932 1.1027 2.2659 1.0655 -0.4312 -1.0025 -0.5333 0.6116 -1.7774 -1.8434 -0.9153 -1.0613
0.2781 0.2279 -3.2450 0.8611 2.3032 1.7981 -0.6770 3.8477 0.9676 3.5199 0.8002 0.5816 1.5797 1.1427 2.2829 1.2120 -0.7150 1.0696 3.1025 2.7922 -0.4411 1.5746 0.6833 1.2356 0.7551 -0.7666 -2.9494 -3.8801 -4.4491 -1.9586
3.1328 2.8995 -3.4473 -1.0896 0.9266 -0.7471 -1.1907 0.9363 1.0808 2.8130 -0.5908 -3.4009 1.0367 2.3888 2.4316 1.7967 -0.6741 1.7359 3.9585 2.9210 -2.0775 0.0805 2.1259 3.4011 2.6184 0.6752 0.9837 -3.4471 -5.4454 -0.2998
9.2287 2.3986 0.9770 -2.7667 0.3022 0.5845 -0.4233 -2.3662 1.2966 2.4560 0.7300 -1.0821 0.5386 2.9903 2.4131 1.3706 -0.4288 2.2310 3.1201 0.7752 0.0546 -1.3174 2.1323 1.6425 2.5321 2.5062 4.7774 0.0517 0.1477 3.0255
11.0981 0.3689 5.0415 -2.9115 0.8214 3.3888 1.2973 -2.5309 1.7435 2.3003 0.4067 2.8705 0.4726 2.5484 0.7686 0.0848 -0.3614 1.5124 0.9547 -1.6744 2.5714 -1.5968 0.5534 -2.7256 0.9797 2.2382 3.9000 2.1910 5.2242 4.1634
5.8124 2.1355 5.6162 -0.8713 1.8265 3.2211 5.3285 0.3378 2.0772 1.7100 -2.9002 3.2544 0.1864 1.8077 -1.4161 0.5562 -1.8976 -0.3165 -0.5541 -2.1615 0.4811 -3.1045 -1.1682 -3.8153 0.2943 -0.5787 -0.5627 -0.4417 2.1957 1.5060
-1.7485 3.7348 1.1752 2.2110 2.6832 2.0430 5.3845 3.3098 2.5766 1.7787 -2.8064 1.1247 0.0624 1.5131 -1.6248 0.9764 -3.2882 -1.3588 -0.7132 -1.4101 -2.2259 -4.5959 -1.6208 -1.3296 1.3775 -3.0254 -3.4457 -3.0540 -1.5533 -1.6440
-5.0677 -0.0816 -4.0300 4.0801 3.1800 3.5883 -0.6705 4.2577 3.1958 3.2507 2.0281 -0.3803 0.9334 1.3856 -0.0892 -0.5048 -1.7040 -0.6805 -0.6457 -1.1403 -0.5404 -2.8454 -0.9619 -0.1509 2.4031 -2.3732 -2.5950 -1.9025 0.0961 -2.2197
-3.0193 -1.9003 -2.6427 4.2951 3.3586 5.4126 -2.2839 3.7665 3.0755 4.4545 4.2889 1.2825 2.0201 1.1334 1.6175 -0.4956 1.1636 0.5746 -0.4500 -0.2436 2.1032 -0.0582 0.0843 -0.7290 2.0136 0.2417 -0.4894 0.0188 1.7399 -0.6476
1.3893 4.2201 4.6636 3.1361 3.0033 3.9691 4.2013 2.5967 2.1351 3.9663 1.4244 5.3435 2.2163 1.2431 3.2874 2.5645 2.7851 1.4857 0.9093 2.6711 2.9887 0.9997 1.6655 0.2616 2.4648 2.7962 1.0687 1.1975 2.5684 2.2257
6.4300 9.4812 10.2167 0.2826 1.8583 0.7538 9.0885 0.8904 1.1913 2.5891 -1.3067 7.1970 1.8115 1.7465 4.2673 5.4027 4.3179 2.2643 2.7250 5.2634 4.7773 2.7868 3.4746 2.2708 4.9938 5.1712 2.3358 3.0144 6.4541 5.8730
9.7750 6.7129 9.7818 -2.2969 0.5602 -1.1465 7.7457 0.1986 0.5326 1.7278 -1.0918 5.4537 1.3751 1.7653 3.5926 6.2588 6.2599 2.9161 3.4008 5.5661 6.5179 5.8085 4.1707 3.1130 6.4011 6.6115 3.5244 4.2378 8.5159 7.6191
7.9512 0.6234 5.2852 -1.7895 0.3601 -0.0729 4.2493 1.2803 0.1873 2.0998 0.6570 3.3455 0.9173 1.2042 2.7946 6.1126 6.0050 2.8412 3.2762 5.9720 4.7253 5.7206 3.4109 4.0897 5.5225 6.2660 5.1263 3.5885 4.9053 6.0259
3.4896 -3.7929 1.7005 0.4626 1.3584 3.6074 2.0152 2.1600 0.4896 3.2211 2.2400 2.1619 0.6869 1.0781 3.3196 5.6923 3.1994 1.9614 3.1900 7.5999 2.0680 2.3915 2.1610 5.6840 5.5729 5.8657 6.9364 2.8408 2.6780 4.7527
2.3833 -6.8659 2.1064 1.3180 2.0114 6.6658 2.2837 1.5006 0.8889 3.5128 2.1840 1.4432 0.6987 1.4689 3.5315 5.4179 1.0704 1.3064 2.6453 7.1788 3.2039 1.0363 1.0248 5.2904 6.9262 6.0882 6.2460 2.4900 4.4213 5.9181
3.3838 -9.7182 3.2810 0.7282 1.4840 6.9780 2.7130 0.2029 0.3646 2.5235 1.3498 1.7037 0.3087 1.3162 2.4849 4.7979 0.6935 1.7397 1.6874 3.9803 6.1553 2.7910 0.2416 2.7993 6.6578 5.1905 2.6647 1.5438 4.2596 5.6568
1.4914 -10.6736 1.1448 0.2927 0.9803 5.9045 -0.6001 -0.2409 -0.2794 1.6116 2.0058 1.8416 0.0561 0.6444 1.6250 2.5066 0.6525 2.7285 1.3927 1.7106 6.1263 4.0564 0.4625 0.8241 5.1594 4.1216 1.7307 2.0999 3.8886 2.7890
-1.4889 -6.1286 -1.4446 0.6369 1.2521 3.6900 -4.0138 1.0645 0.3367 1.3055 2.6399 0.6957 1.3163 0.5309 1.0801 0.0258 1.4461 3.5660 1.8024 1.3095 4.5210 4.2340 1.9469 -0.0564 4.9414 4.8787 5.5392 5.3815 8.0522 2.1865
-0.6781 2.7564 0.0265 1.3796 1.3836 -0.1807 -0.9932 2.8180 1.3255 0.9333 0.7111 0.7065 3.0750 0.8677 0.1575 0.8567 3.2492 4.5034 2.2582 0.7417 6.3673 5.1085 3.7064 -0.4251 6.0628 5.8214 8.0351 7.1311 11.0236 5.2261
2.2916 9.3696 3.7069 1.4507 1.1259 -2.7859 4.7752 2.4409 1.3623 0.8156 -1.7806 2.9127 2.8605 0.7271 0.1972 4.0962 3.2487 5.2269 2.7835 0.8757 9.6719 5.1238 4.2871 0.1397 7.4445 5.1756 6.7432 4.7983 7.9712 7.0886
2.4928 10.2680 4.7152 0.4829 1.0353 -2.2206 5.4925 0.0574 1.1280 1.3894 -2.3959 3.5950 0.9160 0.3740 1.6517 5.0132 0.5763 4.6075 3.2228 2.8661 7.7959 2.5937 3.2115 1.1263 7.8355 3.4053 4.7853 1.5891 4.2310 5.2007
1.1505 5.9632 2.3385 -0.5706 0.7476 -1.0346 2.6169 -1.9246 1.2874 1.6558 -2.4014 1.2956 -0.2616 0.5333 1.9290 3.0280 -1.5245 3.2201 2.9519 3.8688 2.0745 0.6561 1.6187 1.0628 5.7808 1.0862 1.7666 -0.1810 3.0646 2.1766
2.8245 -3.1186 0.7578 -1.4624 0.4178 0.3007 1.3672 -2.5797 1.1106 1.4199 -2.1038 -0.6982 0.1080 0.8374 0.3407 1.8665 -0.9837 2.8493 2.0617 2.2657 -0.7593 1.6577 0.9429 0.0777 2.2134 -0.7396 -1.6601 -1.0843 1.5860 -0.1296
4.9702 -12.2620 2.2586 -2.4131 1.2883 3.7485 0.9288 -2.4931 0.3775 1.8390 -0.2258 -1.3754 0.4396 0.8089 -0.2503 1.8514 -0.0682 3.0776 1.1048 0.6408 -0.5112 2.1823 0.6567 -0.8800 -0.3483 -1.9290 -2.0654 -1.8781 -0.6785 -2.7756
1.6575 -13.4549 2.4493 -2.3111 2.6571 6.1030 -0.7986 -1.8741 -0.0156 2.2216 0.6568 -2.7725 -0.0941 0.8759 0.4937 0.1689 -1.2935 2.4024 0.3883 0.0639 -0.7450 0.0836 -0.5647 -1.7860 -1.2017 -4.2317 -3.2236 -3.8758 -1.9700 -5.2361
-3.6448 -7.5842 -2.0125 -1.2875 2.4620 3.2466 -2.7455 -0.8877 0.3385 1.1244 -1.6720 -4.2293 -0.1997 1.4861 0.1880 -2.4786 -2.4536 1.8795 0.5435 -0.4299 -0.8127 -0.8831 -1.3860 -1.8476 -1.2120 -6.5253 -7.7060 -6.2925 -2.4141 -5.2284
-3.1278 -3.3948 -6.2171 -1.8791 1.2418 -0.9623 -4.2931 -0.2972 0.7990 0.0085 -3.6003 -3.7609 0.6683 2.4551 -0.2136 -3.2551 -0.6324 2.8863 2.1035 0.6342 0.0625 0.8910 0.1596 0.3349 -1.1811 -5.6248 -7.1138 -5.2527 -2.0655 -3.3170
0.4319 -2.6345 -5.7195 -3.8938 1.0406 -1.3578 -5.2194 -0.5084 0.8109 0.4887 -3.1258 -2.3017 0.6588 3.1184 0.8946 -2.5677 0.9539 3.4453 3.8406 3.4648 -1.5124 0.7722 1.8768 2.8619 -1.0163 -3.2745 -0.3124 -1.9004 -0.8502 -2.0445
-0.8755 -0.5895 -3.9300 -4.0421 1.6025 0.0075 -4.9263 -1.4386 0.4198 0.9195 -3.0282 -1.6700 -1.3812 2.6797 0.8551 -2.7610 -1.8599 1.6639 3.5243 3.5662 -6.2538 -3.4616 0.4053 1.9972 -0.5027 -3.4744 1.2920 -2.3145 -0.8480 -2.0348
-5.3690 1.6864 -4.1370 -2.2462 1.4257 -0.2288 -4.3932 -3.1822 -0.2613 -0.0442 -3.9617 -2.2366 -3.8339 1.2405 -1.6520 -4.5217 -6.2802 -0.5403 0.9932 -1.0153 -8.1911 -7.3355 -2.8893 -1.9225 -1.2103 -5.0395 -3.5510 -5.6746 -2.7099 -2.8428
-6.1664 -0.3850 -4.0635 -1.1849 0.8107 -0.8088 -3.5784 -4.7865 -0.8699 -0.8997 -4.4009 -3.5945 -4.6687 0.0259 -3.5757 -6.3124 -7.7173 -1.2677 -1.4995 -6.2308 -4.6603 -7.3633 -4.5955 -5.6979 -3.9508 -5.1180 -6.1102 -6.1229 -3.2198 -4.5263
-3.0610 -5.5561 -2.0157 -1.1641 1.0112 0.3670 -1.3938 -4.4298 -0.7621 -0.4568 -3.9253 -4.6068 -3.6577 -0.1639 -3.7542 -6.1841 -6.6536 -1.7395 -2.4637 -8.6004 -2.6264 -5.6315 -4.5655 -8.1198 -5.9153 -5.4713 -6.5410 -4.6750 -1.1214 -6.1440
-0.2461 -9.1052 -0.0779 -1.4102 1.7902 2.7446 -0.4797 -2.5309 -0.1316 0.6897 -2.0442 -4.4903 -2.0737 0.3209 -3.5084 -4.6810 -5.3382 -2.7067 -2.3560 -7.9324 -6.5516 -4.6697 -4.2185 -8.8440 -5.4279 -7.9727 -8.5113 -5.1676 0.4235 -6.0560
1.2677 -9.4140 0.0455 -2.3102 2.0060 4.1469 -2.8004 -1.3100 0.0604 1.9311 0.8756 -4.0615 -1.4532 0.8344 -2.1681 -3.4678 -3.9921 -2.7640 -1.4057 -4.7212 -9.9778 -3.9297 -3.4273 -6.7426 -4.5545 -9.6196 -8.8860 -5.9078 -0.8878 -4.7161
2.2865 -7.6219 -1.1679 -3.0398 1.6712 3.1709 -4.4109 -1.2009 -0.3436 2.9632 2.6093 -3.5580 -1.9976 1.0968 0.6613 -1.8475 -2.4365 -1.5584 0.6851 -0.4299 -7.3770 -2.4789 -1.8319 -2.4703 -3.7506 -7.6715 -6.6102 -5.3461 -3.7513 -3.7806
1.4190 -4.6213 -2.9958 -1.9569 1.5295 0.8772 -2.9214 -1.2205 -0.5313 3.1317 1.4474 -1.5599 -2.2579 1.2698 2.0781 0.0973 -1.2292 -0.2415 2.6990 1.9037 -1.7064 -0.6772 -0.0187 1.1087 -1.2308 -3.4623 -5.0084 -4.5026 -4.6650 -2.6713
-1.1096 -0.6320 -3.8550 -0.1708 1.4473 -1.0598 -0.4775 -1.3143 -0.3066 1.9756 -2.5107 1.7519 -1.3930 1.3671 0.1741 0.0845 -0.6865 0.6121 2.7956 0.7443 3.9135 0.7257 1.5368 2.0560 1.7800 1.1350 -2.8921 -1.7459 -1.5856 -0.1834
-0.9644 3.5000 -0.7311 -0.1207 1.0439 -2.4676 2.7439 -1.5466 -0.4492 0.2826 -6.2773 3.0297 -0.4909 0.9196 -2.0726 -0.5904 -0.6537 0.6859 1.4455 -1.5171 7.8482 0.9346 2.5784 0.8917 2.5199 4.5449 1.9452 3.2954 2.9092 2.3673
1.6694 5.1004 4.7602 -1.3008 0.7918 -2.4456 5.2489 -1.3270 -0.9865 -0.2948 -5.3353 0.1696 -0.6527 0.0523 -1.0821 0.6796 -0.9995 -0.1549 0.6991 -1.3641 6.2780 -0.0800 2.6510 -0.4258 2.2487 4.7436 6.1510 6.5744 6.0300 3.9203
0.6274 1.7982 4.8774 -1.4571 0.9428 0.1223 1.7085 -0.7387 -0.7870 0.3998 -0.5941 -2.8665 -1.2075 -0.3627 1.5090 1.2370 -1.0216 -0.6873 0.9730 1.2865 0.4588 -0.6860 2.0148 -0.2949 3.2617 2.5976 6.4628 6.4956 8.0213 5.0960
-3.0046 -3.3068 -0.9243 -0.7825 0.8604 2.3324 -4.7474 -0.2444 0.3341 0.6070 1.6095 -0.6681 -0.7062 -0.1702 1.7364 -0.5589 0.7507 0.2893 1.0416 3.5357 -1.8441 0.8805 2.1033 1.1788 3.5060 1.2686 3.7625 5.0348 7.6002 4.9945
-1.3738 -4.3362 -2.3220 -1.0966 0.3765 1.1427 -3.8048 0.2705 1.1006 -0.1417 -0.2463 4.1594 0.8618 0.2887 -0.0591 -0.2734 3.9175 2.1423 0.7783 3.7966 1.8708 4.0295 3.9313 2.8601 2.1703 1.9112 1.4064 4.1032 4.9782 3.6305
4.4937 -2.6146 2.9269 -1.9660 0.2357 -0.3005 2.7210 0.6523 1.0745 -0.2054 -1.1283 4.7753 1.9145 1.1789 -0.4689 3.3569 5.3586 3.6091 1.3195 3.1549 7.6507 6.1220 6.3550 3.9136 3.3602 4.3837 3.7965 5.5924 5.8656 4.1420
6.3015 -3.4564 4.5978 -1.4078 0.6647 1.2050 3.9736 0.7264 1.2350 0.8697 1.1491 1.5651 1.8671 2.2336 1.3926 5.3144 3.8936 4.2023 2.6596 3.1188 12.2439 6.0829 7.1813 4.0350 6.7592 7.4759 9.3452 8.0948 10.1645 5.9422
3.2444 -4.1032 0.4114 0.1606 0.7357 1.9523 0.6029 0.9969 1.8890 1.4586 2.6311 -0.4296 2.1949 2.7139 3.3636 4.1364 2.7257 4.2981 3.7806 4.2049 12.6594 6.1736 6.4967 4.1747 7.3272 7.9177 9.6848 7.2278 10.3108 5.0661
1.8341 0.5320 -1.1948 0.5494 -0.1561 -1.3182 1.2626 1.3124 2.3664 0.7160 -0.1798 0.7391 3.8565 3.0614 3.3524 3.7626 4.8124 4.9440 4.4764 5.8674 8.2377 8.2569 6.5972 5.5549 6.4256 5.5637 4.3843 4.0647 7.0269 3.1001
4.2148 5.3411 1.1536 0.0134 -1.0773 -4.1715 4.8374 1.0696 2.5535 -0.1471 -3.9342 4.5795 5.4455 3.7973 1.5667 4.8475 8.2629 6.0477 4.4820 6.1110 3.7548 9.9848 7.3119 6.1605 7.0822 3.9014 1.6836 2.5320 6.0903 3.0433
4.8785 2.7760 1.1203 0.4936 -0.9737 -1.5791 2.9148 0.5692 2.5502 0.2567 -1.8496 6.6706 4.8939 3.6283 0.4628 3.4592 8.0284 5.3722 3.0255 3.3293 1.3557 7.6746 5.5181 3.0302 5.1132 2.0141 1.3420 0.4763 4.1312 1.4163
0.2482 -4.2012 -2.0321 1.3271 -0.2778 3.7712 -4.5299 -0.2446 1.9853 1.7765 4.6666 0.9880 2.2529 2.0283 1.8113 -0.7518 2.5592 2.3096 1.2752 0.1291 -1.4944 2.4950 1.3974 -1.1880 -0.1752 -2.9194 -2.6686 -3.9336 -1.8047 -3.4212
-3.3574 -7.4276 -3.1823 0.5262 0.1813 5.8082 -7.6823 -1.6681 1.2206 3.0886 6.1932 -7.5682 -0.1259 1.1073 3.9553 -2.5223 -3.0160 -0.0770 1.2663 0.6468 -2.4559 -0.6321 -0.6774 -1.6068 -1.8033 -6.4303 -6.2689 -5.6553 -4.7862 -5.4096
0.7515 -4.5182 -0.4479 -1.1023 0.4186 3.3032 -1.9365 -2.4092 1.3042 2.9541 0.7914 -7.7324 -0.5880 1.7565 3.6681 0.3514 -3.6147 0.0963 1.7402 2.9439 1.8151 -0.5624 0.4560 0.0439 0.5330 -3.2435 -3.1045 -2.7965 -2.0357 -1.7833
7.0501 1.8508 3.2907 -1.5263 0.5697 -0.5969 5.1740 -1.9350 2.0809 1.2886 -3.9463 -0.5342 0.0214 2.0105 0.5627 3.4314 -0.8621 1.0020 0.4307 1.9811 5.5031 -0.1134 1.4029 -0.8182 1.3574 1.9444 1.1740 -0.6832 -0.0326 2.3486
7.1324 8.0324 5.2715 -0.9329 0.4899 -3.0234 6.1427 -2.0069 2.2620 -0.4437 -4.1153 4.9440 0.1369 1.0984 -2.2456 3.5972 0.7419 0.9094 -1.0930 -0.8235 2.8851 -0.3266 0.7305 -2.7210 1.6573 2.0301 0.1658 -1.0785 -0.9193 3.6543
3.5573 8.7534 3.9344 -0.6345 0.2443 -2.5013 1.9435 -2.8931 1.3685 -0.5997 -1.1506 6.0223 -0.7032 0.4701 -2.1157 2.2679 -0.3470 -0.0602 -0.6122 -0.9778 -1.0545 -0.9864 -0.1751 -2.2919 2.9044 -1.3004 -1.7210 -1.0295 -1.0300 3.1422
1.9625 2.2470 -0.9795 -1.0904 -0.0547 0.2875 -3.6587 -3.1685 0.3109 0.5465 2.7886 3.5016 -1.8563 0.4923 0.0809 0.0075 -2.9001 -1.4007 0.4916 0.4372 -0.4824 -2.4678 -1.0018 -1.0579 1.4563 -2.8548 -1.1383 -1.1735 -0.0756 1.1841
1.6302 -3.5715 -4.7156 -2.1506 -0.3317 2.2370 -6.7076 -3.4448 -0.0062 1.3032 3.5758 -0.8483 -2.4717 0.0298 1.4022 -2.8784 -4.9360 -2.6079 0.3181 0.3445 1.5921 -4.0011 -2.0382 -1.4396 -1.7288 -2.6089 -2.4084 -3.2569 0.0866 -1.4214
1.7569 -2.8832 -2.1593 -2.8900 -0.1250 2.0136 -3.7211 -4.4557 0.2294 1.2514 0.0454 -1.8646 -2.5648 -1.0617 0.6647 -3.1206 -5.1358 -3.2907 -0.7370 -0.6213 0.3513 -4.5745 -2.7703 -2.8188 -2.0597 -3.0241 -6.5797 -5.4189 -0.8260 -2.6041
2.1863 -2.1869 1.8246 -1.5229 0.9123 1.8963 1.4048 -3.9049 0.7182 1.5708 -1.9598 0.6251 -2.3798 -1.6197 -0.1724 -0.3391 -3.7089 -3.1574 -1.5844 -1.2259 -2.9412 -3.8837 -2.9411 -4.0951 -1.2950 -3.9000 -8.6410 -6.2756 -3.0258 -2.7677
-1.4730 -5.2993 -0.1075 2.0822 2.1592 3.1852 1.0165 -0.5372 1.7916 2.5160 0.1207 0.2716 -1.3719 -1.2185 0.5798 0.1870 -1.8986 -2.0581 -1.4919 -1.9921 -4.9875 -1.8151 -2.5408 -4.8766 -2.7406 -3.8654 -5.8693 -5.9245 -5.1950 -3.6105
-8.2174 -5.0436 -3.5356 4.6268 2.5518 4.0588 -2.5571 2.3341 2.8747 2.8965 1.2955 -2.7994 0.1856 -0.5833 1.5302 -2.4618 -1.0919 -0.8457 -0.1558 -2.2186 -5.6998 -0.1861 -1.3304 -3.9378 -3.4484 -3.0337 -0.8347 -3.5184 -4.2300 -3.7722
-7.1883 0.9389 -0.6875 3.0003 1.7643 2.6853 -0.8605 1.8269 2.5540 2.2990 -0.1969 -2.5575 0.8132 0.1365 1.2464 -2.0231 -1.4164 -0.1852 1.7736 -0.2740 -4.5374 -0.3320 0.5304 -0.5527 -0.2344 -1.1441 2.5212 0.5783 0.5339 -0.6511
4.0669 5.9853 5.4056 -0.9890 0.5231 -0.2805 5.0604 -0.0194 1.2743 1.6668 -0.6050 0.5933 0.4702 1.2649 1.0331 2.6117 -1.2564 0.7378 3.1272 2.1770 0.9987 0.3502 2.4105 2.3706 4.1327 3.3661 4.3394 4.8251 7.4721 4.8627
12.6117 6.1517 7.3013 -2.8435 -0.0515 -1.7660 7.1303 -0.4667 0.8358 1.7640 1.0207 2.0291 0.3140 2.0933 2.0293 5.1959 -0.1092 1.8069 3.6731 2.3524 8.4112 2.5659 3.7004 1.9802 6.2010 8.6093 7.4566 8.4049 13.6665 8.7356
9.9253 1.6956 4.0299 -1.8476 0.3801 0.3087 3.4243 -0.5598 1.2885 2.3741 2.1981 1.5495 0.2989 1.9415 3.2551 4.0360 0.3706 1.7274 4.2768 2.2247 10.6522 3.1750 4.1841 1.5107 6.8760 8.6193 8.8867 8.7860 13.7856 8.2407
2.5469 -4.5395 -0.2194 -1.1546 0.9087 3.0283 -1.2753 -1.9185 1.4349 2.5892 1.4495 0.5083 0.1032 1.4387 3.6672 2.5192 -0.0824 1.1177 4.7314 4.2402 6.5574 2.6467 4.0254 3.8451 6.7413 2.9988 3.9997 4.1758 6.6583 4.4316
-0.8923 -6.2480 -1.5466 -1.7244 0.6331 2.0036 -2.5824 -2.9734 1.2781 1.7372 -0.9916 -1.8030 0.4829 1.0456 2.6027 1.0376 0.4487 1.3163 3.5019 4.8706 2.2008 3.5402 3.3213 4.2529 3.5924 -0.4450 -1.0512 -0.4321 0.5996 0.4177
0.1434 -2.8455 -0.1727 -1.6301 -0.1953 -1.5677 -0.3568 -1.9594 1.4856 0.3400 -3.2261 -3.8908 1.7111 0.5845 -0.1661 -0.6239 2.6817 1.8890 1.3655 1.5221 1.5056 4.8607 2.5480 0.3390 -0.5307 1.2727 0.4953 0.1938 2.1912 -1.3556
2.2822 -2.3588 0.0187 -0.9180 -0.7947 -2.7067 1.1756 -0.3475 1.6265 -0.4053 -2.8498 -2.2361 2.6967 0.5463 -2.4205 -0.3507 4.8948 2.3541 1.2288 -1.4130 2.5844 5.7308 2.7420 -1.5210 0.1897 2.1795 1.7550 2.5352 6.0281 -0.4784
2.8629 -6.2076 -2.0518 -0.8168 -0.6866 -0.2229 -0.9499 0.1566 1.0699 -0.0315 -0.5243 2.2731 2.8762 1.4057 -1.6483 1.0810 5.6359 3.0475 3.0537 -0.5300 2.0280 6.8066 3.9332 1.3933 4.3490 0.2056 -1.9902 1.8440 5.0188 1.2053
0.3800 -6.2673 -2.8454 -0.0162 0.0234 2.3411 -3.5366 0.6823 0.7800 0.8453 0.7464 5.4296 3.3892 2.4237 0.6501 0.9355 6.4371 3.7509 4.3629 2.0024 -1.6194 7.3966 4.9494 3.6405 5.0027 -0.7559 -3.0171 -0.0314 1.2745 1.4613
-3.5643 -1.1482 -1.1330 2.2573 0.6254 2.7722 -3.2072 2.0131 1.7835 1.4536 1.0123 6.1056 4.5455 2.5943 1.7815 0.3048 8.4389 3.7349 4.7598 4.1795 -5.8840 6.8155 4.9230 3.2177 1.8767 -0.6728 -0.0298 -1.4169 -1.5560 0.1109
-4.9948 2.3571 0.1699 3.5845 0.8668 2.6131 -1.9337 2.2594 3.0153 1.7797 2.4973 5.0965 4.1930 1.8516 2.1633 0.9192 7.7608 2.5019 4.7437 5.2682 -5.2353 4.5777 3.8086 2.7901 0.2036 -0.5953 0.9144 -2.6197 -3.0143 -0.7690
-2.4663 2.3860 0.0476 2.6191 1.2276 2.6147 -0.8536 0.5650 3.1186 2.0853 3.2216 1.6312 1.5379 1.0548 2.5499 1.6781 1.6574 0.6805 3.6394 3.9689 1.6743 0.3799 2.6464 1.9902 1.8978 2.0004 3.3096 -0.2708 0.1527 1.1556
2.2847 1.3777 0.3709 0.4087 1.1752 1.4632 2.2587 -1.2620 2.3263 2.0113 -0.0985 -3.4094 -0.8982 0.8009 1.9502 2.6704 -4.6822 -0.1240 2.0593 1.6127 8.7404 -3.2163 2.6241 0.7777 5.2542 5.1309 8.9502 5.1478 6.4676 4.4396
6.3277 -0.0423 1.6769 -2.3201 -0.0929 0.0838 5.5342 -2.2484 1.3821 1.3375 -4.1405 -5.6626 -1.5757 0.4611 0.5808 4.1830 -5.7990 0.1423 1.4589 0.7695 9.7390 -3.7962 2.8076 1.8200 7.2722 3.0849 7.1314 4.6975 5.0310 4.0986
6.5354 -0.6650 2.2618 -4.0433 -1.1524 0.3998 4.0434 -2.8641 0.9751 0.9541 -3.6248 -3.2905 -1.5123 -0.3819 0.0016 3.2307 -3.5680 -0.1133 0.9841 0.2448 3.6676 -2.9534 1.5323 2.9082 5.0033 -2.3611 -3.6191 -2.8106 -3.9695 -0.1692
3.4452 -0.4616 0.0497 -3.1303 -0.6601 0.9984 -1.5618 -2.9441 1.5098 1.6137 -0.0953 -0.3909 -1.3461 -0.7331 0.4066 -0.8779 -1.7002 -0.9535 -0.2657 -1.1764 -5.2200 -2.1528 -0.3866 -0.1625 -0.5549 -5.5228 -10.1452 -7.1363 -7.0167 -3.3602
1.2403 -2.3232 -4.0827 -1.7627 -0.0866 0.6778 -6.7099 -2.5612 2.0637 2.4738 2.0703 -0.4106 -1.2238 -0.2394 0.6606 -4.3883 -0.8168 -1.2357 -0.9233 -2.0063 -8.5872 -0.8917 -1.2277 -4.4286 -4.9653 -6.0918 -8.1496 -5.5174 -3.3710 -4.5472
0.7041 -5.1980 -5.2537 -2.4312 -0.3298 1.6946 -8.9833 -2.5012 1.5497 2.3463 2.2747 -1.7542 -1.7463 -0.1515 0.1119 -5.9643 -1.1458 -1.2707 -0.7873 -3.1239 -3.6065 -0.5540 -1.3794 -5.8941 -6.0449 -5.6562 -4.7194 -4.3592 -2.4879 -5.3213
-0.6146 -4.8110 -1.1784 -3.0236 0.0646 3.9762 -7.0979 -2.4467 0.7139 1.5018 1.0230 -2.7256 -2.2530 -0.6635 -0.4574 -6.2479 -2.3285 -1.3866 -1.0190 -5.2484 0.6841 -1.9298 -1.8319 -5.9120 -4.4934 -4.5053 -3.6047 -4.7249 -2.9000 -3.6323
-1.7040 -0.8534 4.1859 -1.4207 1.1657 3.5197 -0.6134 -1.1949 0.9155 0.8675 -2.0988 -2.7773 -0.9813 -0.2680 -0.1058 -3.5382 -1.2752 -0.2171 -0.6439 -4.4057 -1.9747 -1.4020 -1.8247 -4.8929 -1.3553 -3.7755 -4.3607 -3.7442 -0.6389 0.0015
0.1162 3.8373 6.7892 0.8329 1.4784 0.3600 6.6588 1.3460 1.9911 0.6418 -4.8054 0.1261 1.7440 1.1342 0.4317 1.3292 2.5021 2.1353 0.9503 -0.3441 -4.7947 1.8723 -0.5163 -2.2615 1.1268 -3.1436 -4.4126 -1.4944 0.9125 1.2411
3.0463 6.1745 5.9740 2.4627 1.2214 -0.8111 9.1335 3.4745 2.8222 0.5978 -3.8091 4.9871 3.4328 1.8188 0.1212 3.3065 4.0029 3.0839 1.6089 0.7497 -1.9037 2.5791 1.0231 -1.0830 0.9151 -0.6837 -0.0823 1.8009 2.1014 1.0385
3.4428 5.4085 3.6332 3.5532 1.2358 0.7352 6.8159 3.3948 3.0023 0.5579 -0.9110 6.9009 3.1524 1.4909 -0.4549 1.8434 1.5991 2.1868 0.9849 -1.8112 2.7420 0.0673 1.5366 -2.2956 0.3244 2.3368 5.4588 4.8281 4.9220 2.6894
2.8146 4.7316 3.6903 2.9945 0.9419 1.9282 4.8175 1.7840 2.8477 0.6174 0.2028 5.0221 2.3869 1.4394 -0.2271 1.7782 0.0128 1.5409 1.3857 -2.3427 4.4913 -0.3350 1.2832 -2.0963 2.4290 2.8715 5.1238 3.6395 3.9671 3.6138
5.1723 4.6288 6.2284 0.5241 0.1242 2.6255 4.7732 1.0504 2.5184 1.2882 0.8536 2.7289 2.2258 1.8633 1.2328 3.8900 1.0808 1.4549 2.9703 0.1923 3.4172 1.2283 1.0984 0.3900 4.6553 1.1111 0.7423 -0.7185 -1.8000 1.2663
8.4821 2.1390 5.6761 -1.1277 -0.2036 3.6185 3.9562 1.7137 2.2252 2.4598 2.8035 1.9005 2.3631 2.3400 3.6689 4.6652 1.8809 1.2903 4.2573 3.1085 1.4645 1.2446 1.6870 2.5469 4.0256 -0.2428 -0.7200 -1.6955 -2.8562 -0.3923
8.0056 -0.6192 1.6633 -0.5184 0.2976 3.4261 2.7359 1.9062 2.3506 3.0255 3.1676 2.6482 2.1058 3.0201 5.5928 4.2864 0.8816 1.5109 5.0808 6.2251 -0.3167 0.7011 3.1613 4.0601 3.6765 0.1504 0.9214 1.9166 3.5379 2.1157
5.4944 -1.3246 0.6520 0.2553 0.8452 2.7437 3.4939 1.0380 2.5325 2.6466 1.6282 3.3691 1.2713 3.1667 5.1521 5.4026 -0.9614 1.6462 5.1422 8.3422 -1.5806 0.6202 4.3688 5.3152 5.7713 1.0101 2.0071 4.8110 7.6606 5.4810
4.1980 -2.6447 3.5171 0.4056 1.0695 3.8957 4.4873 1.2002 2.3243 2.2185 2.5558 2.3933 0.9583 1.9177 2.7221 6.6654 -1.3350 1.2760 3.8628 6.4928 0.3247 0.6309 4.4674 4.8871 6.7495 1.2398 2.2227 4.4906 5.4264 5.6626
1.1559 -1.7805 5.4400 1.7716 1.4747 4.9981 3.6430 3.1148 2.5531 2.1933 5.2614 2.1064 1.9454 0.7005 1.0676 5.2427 1.2089 1.7348 2.3492 2.6000 5.4869 2.3642 4.1303 3.1557 5.3878 1.6385 1.6694 2.6348 3.6050 4.1645
-4.6094 5.0031 5.6904 4.2051 2.2454 3.6889 3.1047 4.4594 3.6539 2.3123 4.8815 4.3496 2.8498 1.0105 1.8226 2.9304 4.1210 2.8377 1.6907 1.4719 5.6618 5.0293 3.8471 2.3925 5.0505 1.9784 -0.9461 0.5212 4.4519 4.0536
-5.7242 8.8727 5.9201 5.2636 2.6071 2.2351 4.3712 4.5733 4.2517 2.3478 2.2430 6.0303 2.9718 1.7200 3.3060 3.5491 5.4257 3.0744 1.4979 2.9779 -0.4494 6.0474 3.7796 2.3386 6.7496 2.1456 -2.2152 0.5341 5.0369 5.9469
1.1050 3.9677 5.5967 4.0580 1.9194 2.2192 5.7222 5.0833 3.6269 1.9239 0.8579 6.0214 3.6140 1.5144 3.3672 6.3876 7.1295 3.0491 1.8399 4.1688 -0.0038 7.0028 4.6000 1.7679 8.8151 5.2662 3.0062 5.1718 7.8612 9.5315
7.0272 -0.0485 5.1211 2.1778 0.9177 2.3085 5.9937 5.2273 3.0245 1.1984 0.6297 6.0164 4.2130 0.8825 2.5087 7.7979 8.2925 3.0206 2.8955 4.6061 8.5051 8.2481 5.5782 2.0507 10.6244 10.7427 9.6787 9.8378 12.7373 13.0132
5.7127 0.9504 5.1248 1.3443 0.9054 2.6258 5.0749 3.2563 3.0033 1.3054 1.0417 4.2517 2.9344 0.5168 2.0046 7.1149 5.5038 1.5696 3.2838 4.1294 11.2136 6.2829 4.9660 3.4537 11.6059 12.0158 9.5320 8.3608 12.0699 13.3463
3.5604 -0.4175 3.6030 1.0487 1.7422 3.0746 2.8242 0.3342 2.4072 2.2914 1.7223 0.5890 0.7309 0.4640 1.4667 5.8637 1.0972 -0.4301 2.2100 1.9653 6.8592 2.1550 3.2353 3.1113 10.5515 8.6848 6.7409 4.6947 6.5819 10.5013
5.0507 -2.7378 1.1781 0.1731 2.2528 2.0017 1.0039 -1.3432 1.1605 2.7217 1.0643 -0.0672 -0.6925 0.5231 0.4380 4.0889 -0.8997 -1.1612 0.8244 -0.4676 3.4058 -0.3008 1.5577 0.3195 7.1984 6.4592 7.0780 4.2049 4.1476 6.8819
3.8847 0.0346 1.7119 -0.0759 2.4096 0.7823 1.3003 -1.0311 0.9412 2.1997 -0.4023 1.7217 -1.5003 0.2410 -0.5473 1.2332 -1.1239 -1.6675 -0.3306 -2.1783 -0.7491 -1.5709 -0.6521 -2.9431 2.6308 5.0406 5.0712 2.9759 3.9805 3.7357
-1.3098 1.7355 3.4138 0.7468 2.6971 1.7823 1.2440 0.0911 1.8117 1.6131 -1.0812 0.1033 -1.7220 -0.4825 -1.1114 -1.6287 -0.8539 -2.6959 -1.4428 -3.9212 -4.1703 -2.3628 -2.7875 -5.4993 -0.4793 2.1122 -0.3984 -0.6732 2.7074 2.1307
-2.7726 -2.7147 1.2920 0.4258 2.5166 2.9702 -0.9534 -0.3039 2.0208 1.4787 -1.5704 -3.2312 -1.1293 -0.9656 -0.6503 -2.3647 -0.5628 -2.5691 -1.4612 -3.5466 0.9260 -1.4157 -2.5538 -5.2340 -0.0426 0.6349 -1.3827 -1.7739 2.2855 1.9780
-2.0119 -4.2445 -2.2283 -0.2722 1.7890 2.1361 -2.0865 -2.1209 1.7385 1.7731 -1.9722 -2.7890 -0.5161 -0.8493 1.1961 -1.1660 -1.5476 -1.3104 -0.1191 0.6047 8.3762 -0.1661 -0.5862 -1.0345 1.1159 0.8720 0.1435 -1.9767 0.7743 -0.0856
-6.6071 0.6183 -1.9541 1.5660 1.6742 1.8862 -1.1791 -2.4862 2.1790 2.2197 -0.8175 -0.4884 -0.2465 -0.6370 2.6038 -1.0414 -2.7826 -1.0254 0.6754 3.3083 5.3457 -0.7121 0.0690 2.0937 -0.8956 -1.3233 -3.3877 -5.8903 -4.9867 -4.4371
-9.4185 0.4244 0.4450 3.5317 2.0822 4.4328 -1.0995 -0.3807 2.3949 2.4724 1.4914 0.5602 0.4384 -0.4402 1.9035 -1.9256 -1.3822 -1.3784 0.3766 0.8630 -5.0045 -1.4564 -0.7549 0.2604 -3.4037 -4.9962 -7.1381 -8.5783 -9.0640 -5.8581
-1.3155 -6.5670 1.5791 1.9805 1.7436 6.4578 -0.4694 2.5573 1.6792 2.5462 2.5585 1.6825 1.8647 0.3135 0.6867 -0.5124 2.0551 -0.2768 0.4947 -1.5552 -10.9890 -0.5113 -0.8059 -1.9143 -2.6814 -5.8314 -4.9781 -5.7532 -6.5505 -3.4995
6.7110 -6.5812 2.5444 -0.3201 0.8403 4.5386 2.7858 4.3056 1.3716 2.5366 1.8134 1.5667 2.9353 1.2726 0.9468 1.5298 3.8280 1.4176 0.8840 -0.3899 -10.4831 0.3738 -0.1000 -0.8307 -2.3014 -4.5694 -2.9827 -3.6266 -3.2291 -2.9526
3.2523 2.3190 4.0998 -0.0159 0.4859 0.9407 4.6087 2.9231 1.5162 2.2472 0.7025 -1.3177 2.1117 1.2573 1.7127 -0.1031 2.3756 1.0424 0.0253 0.1764 -8.0365 -0.7688 -0.5021 -0.4191 -5.2431 -4.2932 -5.5053 -6.0378 -3.8389 -5.4478
-2.4398 6.6441 4.2110 0.8839 0.6856 -0.7087 3.1477 -0.8331 0.9185 1.6117 -0.7620 -2.1156 -0.1948 0.3583 1.0403 -2.8821 -0.2568 -1.0106 -1.7240 -2.2698 -5.1265 -2.3160 -1.9577 -3.0447 -6.6602 -4.4510 -6.8055 -7.6635 -4.6337 -6.5063
-0.4268 2.0229 2.4475 0.2579 0.7648 0.1333 1.8967 -2.5320 0.1159 1.1095 -2.1477 0.8253 -1.7747 -0.3614 -0.4227 -2.5907 -1.9309 -2.3204 -2.7477 -4.7478 -2.0234 -2.7401 -2.8294 -5.7835 -3.8586 -3.4800 -3.9465 -5.4778 -2.5764 -5.0051
3.5657 -3.7163 0.5661 -0.9320 0.4817 2.8646 0.2180 -0.8739 -0.1754 1.3346 -0.6419 1.4864 -1.8287 -0.5891 -0.1363 -1.6227 -2.4292 -2.3539 -2.2813 -4.8968 -0.5138 -3.1846 -2.2638 -6.2440 -0.9652 -1.9333 -1.0198 -2.5962 0.2509 -3.3130
2.9498 -5.1331 -0.6321 -1.0591 0.2384 5.4178 -2.9684 0.7734 -0.1734 1.9947 2.3650 -0.2667 -0.7870 -0.0752 1.8260 -1.6779 -1.2369 -1.2850 -0.4233 -2.2722 0.7443 -2.4723 -0.1235 -3.4114 1.1466 0.0735 0.3050 -0.4856 2.2131 -0.6401
-0.6226 -1.8969 -1.2803 1.5852 0.8308 4.6179 -1.8443 2.3136 0.9730 2.1973 1.7385 1.7102 1.6933 1.4513 2.6832 0.6146 2.0393 1.2460 1.7011 2.3872 3.9566 1.7229 2.7870 2.1498 4.6837 3.0336 1.8400 1.9657 3.6675 4.0257
-4.4694 3.1311 -0.5643 6.2787 2.2083 2.2422 4.4443 5.3257 3.2752 2.1380 -0.3750 5.5833 4.4426 2.6658 2.5674 4.7102 4.5794 3.4699 2.6668 6.3578 6.0789 5.5217 4.3911 6.5717 6.8720 5.4989 3.6385 4.0573 4.2803 6.6508
-5.5598 4.9328 2.7751 7.8465 2.9719 3.3773 7.2550 6.1915 4.0640 2.8325 2.3583 5.8891 4.7070 2.3628 4.3141 6.4524 4.0205 3.1867 3.1562 8.4291 5.3388 4.4628 4.1307 8.0108 6.0990 6.0904 5.0095 4.5030 4.0383 5.2088
-0.0774 2.3581 7.9262 4.0031 2.3850 6.9616 5.3211 3.3274 2.5952 3.9221 7.3639 5.5592 3.2521 1.8322 7.0037 7.0733 3.4292 2.3142 4.4848 9.9473 5.2166 2.6959 4.0214 8.7864 6.8647 5.8169 6.1117 4.1687 4.9670 4.5952
8.4681 -0.6015 11.5081 0.0056 1.3479 7.4529 6.1795 2.2287 1.6812 3.8564 7.3062 7.6569 3.4340 2.3141 6.7554 9.1830 6.1266 3.7192 5.3747 9.8739 6.2461 5.3496 5.2133 8.9233 10.2362 6.1195 6.5588 4.8160 8.3867 7.7815
10.3726 -0.7349 10.8802 0.2310 0.6348 4.3713 9.2440 4.3725 2.3512 2.3505 2.7020 7.8882 4.9015 2.7751 3.3460 9.8459 9.2506 5.8305 4.3724 6.5847 6.3842 9.1608 6.5244 6.7662 11.8649 7.3439 6.4440 6.7270 11.8630 10.9865
3.5226 1.5524 7.1571 2.8432 0.4055 1.8996 8.3388 4.8302 2.8238 0.8197 -0.4188 4.9701 4.6897 2.1896 0.0025 6.8893 8.0073 5.3726 2.4640 2.6685 6.3743 8.3740 6.3216 3.7770 9.9863 8.2113 6.5982 7.7596 11.5079 10.1907
-3.0465 2.9316 3.4640 4.7310 0.9217 1.6297 5.4878 3.2190 2.6296 0.3781 -0.1547 3.0803 2.7681 1.0242 -1.2483 3.8045 3.2162 2.4740 0.6850 0.5960 5.3953 3.3678 4.0979 1.7392 6.3414 6.2578 5.9656 5.6291 7.3361 6.3984
-1.4110 1.1365 1.0689 4.0410 1.5289 1.3540 4.9016 2.6322 2.3921 0.8050 0.8897 2.5862 1.1803 0.0642 -0.1188 3.5445 -0.0740 0.0346 -0.3730 0.1028 2.1546 -0.6342 1.6866 1.2226 3.9000 2.3939 3.4078 2.1422 3.9082 4.0029
5.3188 0.2247 0.2169 0.4821 1.0180 -0.1643 4.2367 1.9734 1.7450 1.4506 1.3291 1.8256 0.5674 -0.1229 2.5868 4.7412 0.2401 0.0153 0.7436 2.0875 1.3188 -0.4262 1.9560 3.3527 4.9827 1.5563 1.2832 1.3711 3.8794 4.9762
7.1592 4.2608 2.2630 -2.3093 0.1608 -0.7822 1.9608 0.4532 0.9909 1.8560 2.0030 2.0641 0.8864 0.5837 4.1126 5.0379 2.3194 1.7383 3.3787 5.7381 4.5944 2.3292 4.3425 6.6438 7.4135 4.2391 1.6838 2.8711 4.4665 6.7457
0.3694 6.4616 5.2222 -0.7080 0.5296 1.4260 0.1756 0.7433 1.3538 1.5583 2.5055 2.5233 1.9940 1.2508 2.2513 3.3246 4.3576 3.1098 3.7785 5.5859 3.8563 4.3906 5.0817 6.6913 7.3758 5.0823 2.6031 3.0408 3.7756 7.3647
-6.9332 -1.1206 3.7669 2.7141 1.4427 4.7804 -1.1939 1.6748 2.1993 0.8382 2.2683 0.2586 2.0011 0.9046 -0.3798 0.6903 4.0231 2.6863 1.0876 0.8357 -3.6280 3.2925 3.1231 3.2037 5.5707 2.7612 2.3279 2.0356 4.2571 7.4963
-6.4427 -10.6003 -0.2588 3.6117 1.7361 6.4459 -1.8863 -0.6999 1.8054 1.0935 3.2518 -2.8508 -0.6098 0.0175 0.6773 0.4975 -0.9114 0.7491 -0.6958 -0.9934 -8.3034 -1.7134 1.1937 0.7320 4.4108 0.9141 2.3117 2.0521 6.2345 6.6905
-1.2089 -8.8189 0.6992 2.3707 2.0037 5.3106 1.1367 -3.7459 0.7487 2.4232 4.3739 -2.2913 -3.0858 -0.2836 3.8765 3.3496 -6.0321 -0.5527 0.4081 2.5683 -4.5325 -6.1139 1.0825 0.9845 4.0409 0.7024 3.5692 2.8378 7.3804 4.7384
1.6978 1.3822 5.8442 1.1173 2.3622 1.7316 6.9609 -2.4495 0.7901 2.5478 0.2650 1.5556 -1.9921 0.1470 3.3303 4.8655 -4.1434 0.7829 1.5663 4.0666 2.4665 -3.9173 2.0114 1.2729 4.4741 1.6861 5.1889 4.0397 8.6084 4.4603
2.1123 7.3133 8.0418 -0.1615 1.8372 -1.7941 9.5247 0.2138 1.2712 0.6262 -6.8149 4.5322 0.6211 0.4307 -1.0901 2.7563 1.5146 3.0352 0.6765 0.0651 6.3167 1.3339 2.3263 -0.0746 5.1696 3.5041 5.6789 5.2331 9.8765 5.8715
2.3004 4.6048 5.7812 -1.4637 0.9331 -1.6011 5.8075 -0.4619 0.6032 -0.8630 -7.4505 4.5008 0.9776 -0.0510 -3.5575 -0.1403 2.1632 2.6320 -0.9705 -3.5882 4.3968 1.5245 0.7919 -2.1359 3.3153 2.9007 2.9633 2.8931 5.8934 3.2554
-0.1849 -2.4684 1.2977 -1.0809 0.9289 2.1105 -0.8758 -1.0977 -0.0684 -0.3129 -1.2914 2.3017 0.1938 -0.7286 -2.2411 -1.9460 -0.5730 0.3281 -1.7232 -3.2533 -2.1895 -1.2258 -1.8891 -3.1812 -1.8382 -1.7318 -3.5509 -4.4631 -4.4754 -4.5442
-6.9134 -8.3826 -4.3922 1.9741 1.5033 4.9152 -5.8657 2.1307 0.8538 0.8532 3.6765 -0.3363 0.7701 -0.7286 -0.8774 -3.6004 -0.1054 -0.3749 -1.5718 -2.1703 -8.4834 -0.4787 -3.5180 -2.6899 -6.7561 -6.1045 -9.9849 -10.9639 -12.7496 -9.7631
-12.0298 -9.3627 -8.1874 5.5133 1.7747 4.5069 -6.8030 5.3603 1.8772 1.4676 4.3524 -1.7657 1.7873 -0.1790 -1.1812 -4.8661 1.8210 0.5497 -1.3182 -2.7827 -10.3059 1.7114 -3.4451 -2.7793 -8.6221 -6.9743 -11.2400 -10.8195 -11.9009 -8.2726
-9.1500 -6.0935 -5.9953 5.8550 1.7084 3.0306 -3.6295 4.6309 1.4304 1.9229 2.3100 -1.5031 2.1469 0.3651 -1.1039 -4.2417 1.6387 1.2499 -1.0609 -3.0765 -8.2187 1.5043 -2.7915 -4.2299 -7.6261 -5.4089 -6.8290 -6.3028 -5.6734 -5.0762
-0.8310 -2.0349 0.6821 2.5149 1.4549 2.6264 0.6466 1.7993 0.8808 2.1463 -0.0213 -0.6054 2.4057 0.8024 0.2551 -2.0706 1.4330 1.6140 -0.3380 -1.6381 -4.7035 0.4128 -2.2378 -4.0276 -4.5012 -2.5028 -1.0285 -2.4831 -0.9985 -3.3888
5.0857 1.3023 5.8131 -0.5432 1.2425 2.8959 2.2084 -0.4144 1.5951 1.8577 0.5996 0.6611 2.2517 1.1324 1.3752 -0.2279 2.1212 1.6821 0.3903 -0.5552 -0.7133 -0.1414 -1.7746 -1.9298 -0.6151 0.4844 1.4443 -0.3935 1.3985 -1.3508
4.9582 3.0227 6.6018 -0.0397 1.5624 3.2622 2.1949 -1.1249 2.6949 1.7572 2.9853 2.8247 1.2641 1.2400 1.3293 0.6943 1.3927 1.1173 0.3030 -0.8181 3.2613 -0.5916 -1.2565 -1.5693 0.9775 1.7562 -0.0268 0.3824 2.3636 0.0315
1.1040 1.9883 5.6237 2.1730 2.2188 4.1059 4.1162 0.0031 2.8874 2.0547 2.3123 4.0619 0.3808 1.0096 0.6872 1.4386 -0.8934 0.3311 -0.1743 -0.0003 4.5409 -1.2746 -0.5004 -2.3515 -0.9587 1.7471 -1.4420 -0.5262 0.1179 -1.5361
-1.5317 0.3694 5.4716 2.0102 2.2446 4.6253 6.2188 1.7159 2.0371 1.9584 -0.7611 2.2904 0.2860 0.4886 0.1551 1.9498 -2.3236 -0.0299 -0.0519 2.2634 1.5184 -2.2134 0.4805 -0.6346 -2.7125 1.6858 -0.1604 -1.7531 -3.3058 -2.9951
1.0651 0.9569 5.5758 -1.1153 1.4150 3.0286 5.0462 1.8325 0.9080 1.5027 -2.1190 -0.1053 0.6771 0.0271 0.2215 1.4760 -1.0113 0.4290 0.6306 2.4341 -1.4697 -1.7467 1.2899 1.7361 -1.0439 1.5176 1.5364 -1.1565 -2.2615 -0.9435
6.5980 1.5286 4.3318 -3.6377 0.6962 0.3614 2.2209 0.8745 0.2881 1.2887 -1.7443 0.7952 0.8756 -0.2971 0.9152 0.1722 1.6793 1.1461 0.8375 -0.3139 -0.8287 0.7402 1.0297 0.3440 1.0149 1.2213 1.6486 0.9760 2.7820 2.0718
6.9172 -0.8550 1.4274 -2.5740 0.6995 0.2086 -0.1927 1.3308 0.4070 1.2147 -0.5947 3.6610 0.4747 -0.5874 1.3683 -1.0358 2.5625 1.0358 0.2963 -2.1423 0.3039 2.4229 -0.4140 -2.6822 0.3671 0.7548 1.5993 2.5177 5.1520 2.6373
-0.1573 -3.4542 -1.4274 0.4626 0.6743 2.5227 -3.2758 2.5353 0.8938 1.3032 2.0107 2.9866 -0.1123 -0.4261 1.0887 -1.7130 1.8107 0.5446 0.2816 -1.3808 -0.0628 2.5734 -1.2955 -2.0424 -0.0563 0.1152 1.8536 1.9115 2.4748 1.6574
-5.8099 -3.0098 -1.9250 1.4066 -0.2423 2.8429 -5.2193 1.0667 0.9376 1.5747 3.3170 -1.3346 -0.6827 0.2162 0.6283 -1.7643 1.5060 0.5466 1.4441 -0.2699 -0.7911 3.3938 -0.5406 1.3210 1.8102 0.4239 0.7856 -0.0817 -0.2074 1.2559
-3.3168 -1.3216 -0.4313 -0.4473 -1.3879 -0.2881 -2.1123 -2.2282 0.3886 1.2251 -0.0459 -2.1503 -1.3654 0.7268 0.2927 -0.2960 1.3383 0.6192 2.8553 1.0091 -2.8593 4.2829 0.7916 3.2926 3.4491 1.9084 -0.2967 -0.4118 1.0928 1.5141
1.9641 0.6058 0.1922 -1.6838 -1.3743 -3.1426 3.0013 -2.3299 0.5417 0.4576 -3.9573 1.5504 -1.1645 1.2046 0.3877 2.6359 1.0560 0.8347 4.0527 3.8851 -4.2070 3.3719 2.0773 4.1413 4.6505 3.2817 2.5179 2.7287 4.6195 2.0452
2.2698 4.0899 -0.7745 -0.3533 -0.3523 -3.2494 3.9969 0.7603 1.9427 0.5862 -3.4496 1.7710 0.2606 1.8038 1.4809 4.1966 1.4809 1.7330 4.9040 6.0631 -0.0648 1.9346 3.4278 5.1546 6.8871 4.8338 7.9641 6.7338 7.7554 3.6813
0.0869 5.4545 -0.2569 1.3668 0.3714 -1.7187 3.3856 1.8210 2.8610 1.2070 -1.6325 -1.5961 0.9033 1.8266 2.7332 3.6827 1.6658 2.2707 4.4463 5.3284 5.9910 1.7025 3.8821 4.9082 7.4384 7.1733 9.3828 7.4583 9.0115 6.2242
2.0439 0.9083 3.4660 1.3211 0.8647 0.9624 5.7538 0.1709 2.1668 1.4652 -0.5867 -0.7089 -0.0821 1.1946 3.1523 4.5453 0.5368 1.4229 2.9687 4.3729 6.9269 1.4521 2.9103 3.4635 4.8581 8.1822 5.0981 4.6490 6.7088 7.0302
5.5821 -3.7564 6.6780 0.3635 1.9580 4.8363 6.0046 -0.3653 1.2373 2.3746 3.0881 2.7147 -0.6378 0.7162 3.5073 6.2083 -0.5603 0.4623 2.3556 4.7044 5.0687 0.1840 2.0437 2.7388 3.5520 6.8325 1.0405 2.0906 2.9463 5.5996
4.3586 -2.3835 5.4767 -0.0890 2.6928 7.0230 0.4982 0.7512 1.3067 3.7188 6.7799 2.7007 0.2575 0.5854 3.5943 4.2281 -0.1343 0.8902 2.6946 3.8439 5.1197 -0.1631 2.5249 2.6644 5.1587 5.5043 1.4407 2.5887 2.8477 5.1139
0.6530 0.9009 2.0445 0.1697 1.8104 4.8351 -2.5166 1.5656 1.7466 3.1346 4.2040 2.2575 1.0451 0.3449 1.8321 0.6185 1.0628 1.6208 2.1605 1.9819 2.9080 0.8237 2.8565 2.0541 5.0075 4.5157 3.6746 4.3618 5.4360 5.5586
-0.0595 1.2395 0.5459 0.9464 0.3685 0.3514 1.7960 1.6775 1.9225 0.7576 -1.9231 3.2048 1.0453 -0.1482 -0.7426 0.3631 1.8905 0.9317 0.3872 1.3272 -4.2436 0.8344 1.0431 0.5411 1.4283 2.1603 3.0355 3.5377 4.9243 3.6344
1.9883 1.3944 1.2290 1.2500 -0.1518 -2.6205 5.8780 0.9988 2.0996 -0.5853 -4.9122 1.3014 1.2952 -0.5152 -1.4988 1.5742 2.6353 -0.2859 -1.0456 0.5688 -7.5227 0.3913 -1.6380 -1.2713 -1.1460 0.4822 -0.7607 -0.0250 1.2962 0.8161
4.1156 2.9107 2.1124 0.1130 0.0210 -2.7530 4.5329 -0.1980 2.0689 -0.0164 -3.6899 -1.3264 1.5424 -0.4160 -0.2935 0.9630 2.9876 -0.5087 -1.1333 -1.0130 -3.2094 1.1961 -2.5960 -1.7014 -0.5715 1.0622 -4.0545 -2.5796 -0.8713 0.3939
4.2842 1.5535 1.5232 -0.7499 0.4017 -0.8212 1.4557 -0.1646 1.2756 1.0224 -0.3229 0.4012 0.7009 -0.0055 1.5771 0.3238 2.0922 -0.2585 -0.5031 -0.3930 -1.6248 1.5213 -2.1761 -0.2573 0.0732 0.4024 -4.9128 -2.3466 -0.8934 0.1980
1.7664 -2.8790 -0.5823 0.7151 0.9916 1.5721 -0.1354 1.4171 0.3958 1.7688 2.8945 3.0318 -0.1521 0.4958 3.5672 1.2608 1.4657 0.1319 0.1441 2.7614 -4.8255 0.9085 -1.5508 1.4361 -0.1403 -1.3247 -3.2295 -0.7619 -0.4140 -1.2453
-0.4212 -4.0276 -0.9517 2.5444 1.2453 3.2938 -0.4683 2.6280 0.5821 2.3718 4.2531 2.2784 0.5559 1.0519 4.7683 2.4916 2.5551 1.3399 0.9982 4.7829 -2.3379 1.8452 0.0170 2.6695 2.0739 1.2888 1.4310 1.4186 1.6836 -0.0662
0.7996 0.3960 2.7705 2.0302 0.8073 4.3629 0.0714 2.8659 1.5355 2.5058 4.7263 1.1546 1.9542 1.3448 3.9430 3.1082 3.5564 2.4528 1.8860 4.1979 4.2683 3.3799 1.9371 3.2937 6.2225 6.5346 6.0701 3.9273 5.4835 4.2361
3.4017 5.7203 7.0931 0.7226 0.6502 4.3711 1.4743 3.3299 2.2075 1.9116 5.3573 2.1809 2.6658 1.2506 1.7583 3.3709 3.1982 2.2177 1.9655 2.6749 4.7207 2.5638 2.0944 2.2175 7.1286 7.5544 5.8837 4.7959 6.7753 6.3469
4.2066 7.9491 7.6816 1.0021 1.4169 2.7895 3.7978 4.2860 2.3956 1.3201 4.1501 3.1035 2.8520 1.3876 0.2845 3.7037 2.7694 1.8187 1.2388 1.5907 1.2899 0.8009 1.3042 0.2822 4.6437 5.2025 2.5064 3.2062 4.2740 4.6817
3.4324 6.5760 5.4106 1.5515 1.8337 1.0033 5.9592 4.4534 2.2300 1.2115 0.1310 2.6760 2.5378 1.8265 -0.0438 3.6149 2.4845 2.2767 0.4767 0.8967 -0.3793 0.5625 1.3738 -0.4953 3.3152 3.4180 0.5919 1.2752 2.6709 2.8866
2.7107 3.1158 3.3522 0.3830 0.8650 0.0927 5.9066 2.4655 1.4832 0.8253 -3.4870 1.9322 0.8919 1.6152 -0.4412 2.0560 1.0519 1.9615 -0.1044 -0.0330 -2.6348 0.1829 0.8494 -1.0548 2.3771 0.8093 -0.7275 -0.0893 3.1920 1.8554
2.9543 0.5918 1.9465 -1.3841 -0.1475 -0.9790 3.7721 -1.1284 0.5101 -0.0666 -3.9360 1.0099 -1.5618 0.7472 -1.0930 -0.0339 -1.3243 0.1245 -0.6269 -1.1698 -4.3915 -2.0089 -1.3130 -2.9750 -0.8289 -2.1538 -3.3209 -1.7974 2.2068 -0.0235
3.3708 0.4858 -0.4500 -1.4369 0.1862 -1.6596 1.1623 -3.0048 0.4482 -0.3217 -2.5662 0.0146 -2.4004 0.4972 -1.2625 -0.9371 -2.9066 -1.0855 -0.9782 -1.9281 -2.0804 -3.9003 -2.7831 -4.9101 -2.3858 -1.8870 -4.8618 -2.9701 0.4773 -1.3154
2.0172 1.5127 -3.3931 0.1736 0.9091 -0.1069 -1.1474 -0.8908 1.3888 0.2961 -1.2742 -0.1733 -0.8582 1.1418 -0.8110 -1.0989 -2.9741 -0.7012 -0.9805 -1.7268 -0.3316 -4.0761 -2.3001 -4.7599 -0.0266 -0.5187 -4.1925 -2.9087 0.3508 -0.6268
0.6815 2.9328 -3.1529 0.9528 0.8233 1.5572 -1.0604 2.1690 1.9790 0.6984 -0.0420 0.3158 0.4929 1.7750 0.5166 -0.3495 -2.2278 -0.1530 -0.0983 0.4692 -2.9774 -3.6207 -1.0890 -2.1722 0.9960 -0.9277 -3.1898 -3.1119 -0.8284 -0.0680
3.3270 3.7450 1.2747 -0.2095 0.5299 0.5805 2.9771 2.3368 1.8702 0.7945 0.4227 1.1558 0.2532 2.0865 2.3218 2.5689 -0.5435 0.3352 1.7791 3.7748 -5.4874 -1.9701 0.2146 0.9485 -0.4619 0.0485 -2.8670 -3.4962 -3.1853 -0.3596
6.2217 1.6601 4.7918 -0.7679 0.8902 0.0952 6.6109 1.5921 2.2110 1.2889 -0.3257 2.5816 0.3155 2.0460 2.3035 4.8858 2.0043 1.0644 2.8329 3.9580 -4.5154 1.0386 0.9549 1.5880 0.4139 2.1646 -3.2631 -2.6804 -2.2218 0.1811
2.7560 -1.5005 3.7774 1.0701 1.6366 2.8379 5.3556 3.0268 2.9899 1.8696 0.0162 3.4858 1.0030 1.3945 0.3882 3.4318 2.4744 0.5342 1.7943 0.7480 -1.6046 1.6134 0.1091 -0.1076 2.4646 0.3635 -4.0132 -1.9814 0.3334 0.6373
-2.1182 -0.9941 1.4519 2.4453 2.0918 4.4569 2.7219 4.2694 2.9249 1.9294 1.8750 2.7579 0.2567 0.8738 0.2945 1.7135 -0.3140 -1.3145 0.7296 0.2859 0.5071 -1.2429 -1.1818 -0.5206 1.5560 -3.2399 -4.3458 -3.1568 -1.0714 -0.7085
-0.3698 2.3814 2.0361 0.9813 2.0973 2.2266 3.1310 2.9120 2.1407 1.7283 2.3766 1.9215 -1.3343 1.3467 2.4470 2.9501 -1.9820 -1.9945 1.2117 3.2348 -0.9428 -2.7624 -1.3609 0.5991 0.1388 -3.1674 -4.2507 -4.4032 -3.5606 -1.9333
3.4485 4.4558 5.4497 -0.7230 1.9968 0.7507 4.1142 1.3388 1.7492 1.6706 1.9419 2.6992 -1.4626 1.6982 2.6105 3.2207 -0.0927 -1.1803 1.3252 2.4956 -3.9688 -1.3977 -1.3658 -0.7053 0.3576 -1.5947 -3.4112 -3.3249 -1.4534 -1.2615
2.8728 4.4264 8.3335 -0.4984 1.8645 2.5105 2.6806 1.0389 1.4633 1.8192 3.2771 4.2780 -0.6723 0.7379 0.5512 0.3273 1.6680 -0.8142 0.2976 -2.0057 -3.1612 -0.6025 -1.9720 -3.9727 -1.1175 -1.8616 -1.4854 -1.6987 1.2480 -1.0191
0.8965 2.1665 6.7008 0.1521 1.4930 4.0319 0.4273 0.7382 0.7125 2.1927 4.9586 4.6629 -0.4574 -0.1535 0.6621 -1.2108 1.1924 -0.7975 0.5825 -2.1574 -0.8777 -1.1659 -1.7084 -3.1815 -3.4993 -1.5586 0.5262 -1.9567 -1.0636 -2.9295
-0.8502 -2.5020 0.5421 0.9387 1.1359 3.3926 -0.7551 1.0380 0.4821 2.3023 4.1937 2.8906 -0.0733 0.5216 2.7431 0.4719 1.1511 0.1427 2.4946 2.3378 -2.8750 -0.6808 0.1578 2.3860 -1.6822 0.5778 2.3516 -1.7900 -3.4601 -4.2705
-4.3445 -5.2660 -4.1536 2.5788 0.9883 1.8894 -0.6883 2.6523 1.3527 1.3181 1.6256 0.7890 1.0594 1.4829 2.4244 1.3652 2.5347 1.2137 3.0927 3.5716 -5.4418 1.3448 1.6217 5.3175 2.0569 1.4503 2.9934 0.1722 -0.9613 -3.0098
-5.4063 -1.8651 -3.0096 2.7103 0.7349 0.1526 0.3159 3.0590 2.1750 -0.2921 -0.5258 1.5670 1.5090 1.1864 0.2320 -0.3388 2.6474 0.8614 1.7892 0.4281 -3.4449 2.5116 0.8071 2.0007 1.0985 -0.3027 0.2318 0.2572 1.5888 -1.6141
-1.4309 4.2031 0.2019 0.2431 0.4712 -1.7432 0.8179 1.0058 2.2878 -1.2632 -1.3652 3.9797 0.6324 0.4643 -0.3808 -2.3032 0.7875 -0.6143 0.6718 -1.8391 -0.3727 1.1489 -0.9240 -2.5358 -2.9443 -1.9114 -3.0365 -1.7359 1.1188 -1.9354
0.8227 5.9702 0.2263 -1.3164 0.4380 -3.0529 0.3921 -0.6431 2.1303 -1.7054 -2.0755 2.9816 0.0050 0.4237 -0.5451 -2.6576 -0.3193 -1.6816 0.1921 -2.3563 0.9328 -0.6641 -1.1266 -3.4205 -3.8162 -1.3090 -2.6868 -2.4501 -0.2346 -2.7111
