Fp1 Fp2 F7 F3 Fz F4 F8 FC5 FC1 FC2 FC6 T7 C3 Cz C4 T8 CP5 CP1 CP2 CP6 P7 P3 Pz P4 P8 PO9 O1 Oz O2 PO10
-1.8950 -1.0886 0.7879 0.2948 -0.4676 -1.6949 -1.7912 -2.4139 -1.0291 1.0967 -2.2806 -3.4454 -0.9765 0.8308 2.1878 -1.8968 -1.6256 -6.3888 2.6325 7.7475 5.7451 4.9220 2.1947 3.3981 3.4399 0.4069 3.3682 6.1335 4.3371 -1.1677
-1.3679 -1.1624 1.2317 -0.2343 -0.6423 -2.4404 -1.1876 -1.0897 -0.8828 1.5908 -1.3583 -9.4095 0.5272 1.1568 3.3171 0.1918 -1.6204 -5.4215 5.0689 5.2876 4.7508 4.5916 3.2316 4.4842 5.0383 -0.3790 2.9323 2.3026 2.2795 0.6847
-1.2786 -0.6081 -3.2768 1.5688 -0.5537 -0.6889 1.3813 0.1604 -0.7146 2.2107 -0.3627 -10.7466 1.2760 0.9920 3.4716 2.4654 -1.7014 -3.6081 5.3411 3.2301 2.8235 4.1657 4.0207 4.2839 6.8472 -3.5222 0.4375 -1.3178 0.6773 2.5932
-2.0082 -0.6155 -8.5827 -1.3770 -0.4436 0.5217 1.5722 1.0172 -0.4836 2.1708 -0.4800 -5.4332 0.9788 0.7837 2.8773 1.9213 -1.7007 -3.4207 3.4524 2.8742 1.8502 3.7722 2.7124 3.5466 6.5066 -6.5329 -2.1211 0.6235 2.6294 3.2581
-2.5707 -1.3021 -8.8598 -4.3554 -0.5202 -0.2542 0.1251 1.6116 0.1415 1.6571 -0.5395 -0.3683 1.0271 0.9007 2.7834 -0.5381 -0.6331 -4.4376 2.7251 5.8503 2.4728 3.7952 1.0062 3.4611 4.6750 -6.6216 -2.3305 5.0148 5.2373 1.2960
-1.7764 -1.6276 -2.7731 1.4247 -0.7163 -1.2789 -0.6415 1.9641 1.0951 1.5071 -0.1961 -1.2267 2.3494 1.2110 3.3855 -1.3701 1.2380 -4.8427 3.9839 10.2545 2.8970 3.8710 1.3558 3.9708 3.8341 -4.4292 -0.8921 4.0309 3.3493 -2.5322
-0.8948 -1.1964 1.9002 6.5026 -0.9337 -1.6737 -0.6142 1.7565 1.7198 1.9185 -0.6400 -4.8464 4.0151 1.5662 3.9802 1.6431 2.0906 -4.1376 5.4948 11.4836 3.4663 4.0758 3.3091 5.0558 5.6176 -1.5577 0.8316 -0.3691 -0.0318 -2.6752
-1.3228 -0.5985 0.1481 -0.9861 -1.0627 -1.5220 1.8426 1.0304 1.6557 2.4101 -0.6650 -4.8686 4.3815 1.7759 4.3792 5.9227 1.3752 -2.8119 6.4114 8.0199 5.1822 4.7373 4.7425 6.4261 8.7029 0.4836 2.0848 0.2824 1.9711 3.9382
-2.6188 -0.2097 -5.8256 -10.7588 -0.9627 -0.3087 6.5403 0.4414 1.2603 2.7481 1.4755 -0.0065 3.0516 1.5805 4.7406 7.0625 0.4803 -1.5603 6.3484 4.0053 6.0403 5.0997 4.8377 6.7088 9.8579 0.2785 1.9855 6.0679 7.9094 10.7691
-3.3404 -0.0069 -10.9425 -9.1599 -0.6939 0.8316 6.5526 0.6415 1.0845 2.7743 2.5796 4.3077 1.4596 1.1048 4.4378 4.7413 -0.0108 -2.0628 4.5585 3.4948 4.5424 4.6378 3.7969 5.2265 7.9946 -1.4808 0.8018 8.6234 9.6274 9.8459
-1.6896 -0.0746 -6.3944 -2.7335 -0.5368 0.1355 -0.6507 1.6434 1.1113 2.2910 -0.2914 1.5619 1.0615 0.8431 3.0643 1.7040 -1.0411 -5.2252 1.9531 5.1368 2.0484 3.9009 1.7500 3.2346 5.2919 -3.2045 -0.3223 4.0120 4.4821 2.8114
1.4500 -0.1231 6.5249 -1.8158 -0.6038 -0.9849 -5.5108 2.4007 0.6813 1.8080 -3.0071 -6.6847 1.2856 0.9800 1.8166 0.0437 -2.5530 -8.1189 0.6812 4.9841 0.1094 2.9317 -0.1040 2.2149 4.0595 -4.3638 -1.0218 -1.8009 -0.8650 -1.5623
2.3147 0.3955 11.3698 -2.8561 -0.6747 -0.7180 -1.6800 1.8215 -0.3170 1.8452 -1.8162 -11.0074 0.7692 1.1402 1.6042 0.6766 -2.9130 -7.6248 0.9585 2.0896 -0.2253 1.6176 0.0196 2.1401 4.2819 -4.3012 -1.0489 -1.6962 -0.1829 1.0878
0.4132 0.8965 4.4706 0.1596 -0.5514 -0.2152 3.5315 0.3768 -0.8309 1.8335 0.0798 -6.6924 -0.3598 0.9580 1.6335 2.0945 -1.6890 -5.6535 1.3299 0.1915 1.3717 0.9570 1.5887 2.0147 4.1716 -2.9688 -0.2147 2.4233 3.3719 4.4715
-1.1737 0.4201 -1.2402 5.3590 -0.3192 -0.1699 3.1690 -0.6841 -0.2202 1.2697 -0.0948 -0.8279 -1.0730 0.5541 1.3943 1.1985 -0.8125 -5.1619 1.0362 2.4472 2.5990 1.3749 2.3599 1.1338 2.4223 -2.1465 0.4548 3.6209 3.0932 1.0954
-1.4330 -0.2543 -2.5634 7.1269 -0.1658 0.5259 0.6574 -1.0405 0.6338 0.7904 -0.2604 -2.0374 -0.9656 0.2808 1.2638 -1.3570 -1.7437 -5.4169 0.2187 4.8701 1.1288 1.6568 1.9798 -0.2170 0.1348 -2.4312 0.1936 0.8648 -0.4684 -4.7446
-1.2479 -0.0283 -4.1181 1.7322 -0.1204 1.5088 0.2721 -1.1689 0.7946 0.9024 0.4383 -7.3245 -0.5170 0.1874 1.0477 -1.7118 -3.4236 -5.6291 -0.3913 2.1816 -0.9925 1.0292 1.9237 -0.8110 -0.2969 -2.2520 -0.1314 -1.6255 -2.1212 -4.3197
-1.4095 0.2932 -5.8811 -6.2200 -0.1104 1.6446 1.4456 -1.7593 0.4385 1.1452 0.1479 -7.4219 -0.5779 0.1300 0.6931 0.6747 -4.1141 -6.4373 0.1361 -1.4061 -0.5813 0.2745 2.6934 0.0380 1.3726 -1.4170 0.1730 -1.5675 -0.7997 0.2263
-2.7292 -0.0228 -8.3247 -6.1094 -0.1641 1.5669 3.2385 -3.0219 0.0489 1.2290 -0.7413 -2.4249 -1.1318 0.2160 0.9374 2.7011 -3.4160 -6.5182 1.4197 0.2917 1.2426 0.3005 3.3394 1.1251 2.7268 -1.2210 0.5175 0.5729 1.1509 1.7918
-3.7275 -0.0497 -9.3420 1.6612 -0.2820 2.0038 4.1880 -3.6306 -0.0823 1.3586 -0.4789 -1.0046 -1.1116 0.4568 1.4188 1.9889 -2.3829 -4.8450 1.9797 2.3794 1.3688 0.8551 2.8344 0.7898 1.8477 -1.5970 0.1384 3.1268 2.4636 1.1756
-2.0124 0.4234 -3.8373 4.2776 -0.3268 2.2417 2.2660 -2.2677 0.2268 1.3752 -0.2076 -5.9690 -0.2297 0.5375 0.9479 -0.7888 -2.5558 -3.5094 1.5398 -1.1495 -0.3530 1.1978 1.5441 -0.4381 -0.2085 -1.8309 -0.7933 3.3260 2.3486 1.7290
0.4052 0.2599 2.6969 -0.4984 -0.3307 1.4479 -1.2159 -0.1298 0.6466 1.1466 -1.8256 -10.8119 0.5597 0.5498 -0.0450 -2.3131 -3.7373 -3.6222 1.1727 -4.5731 -1.6276 1.4291 1.4193 -0.5584 -0.6459 -2.0981 -0.9812 0.1170 0.1428 1.5557
0.1362 -0.6649 1.9900 -1.1344 -0.4844 -0.4697 -4.0984 0.6398 0.6739 0.9702 -4.0451 -10.2320 0.7204 0.9065 -0.4077 -1.7083 -3.7013 -3.7914 1.3034 -2.4717 -1.2896 1.9043 3.1605 0.4741 0.6914 -2.5999 0.1394 -2.5333 -1.8156 -0.6149
-1.7454 -1.4308 -1.7775 3.2767 -0.6923 -2.4186 -5.5567 -0.2236 0.4874 0.8210 -4.2200 -7.2276 0.6426 1.3487 -0.1081 -2.4231 -1.8256 -3.4199 1.6049 -0.1596 -0.3927 2.2294 4.6598 1.0523 0.9485 -3.1863 1.0177 0.0766 0.1290 -1.3763
-2.6796 -1.5608 -3.5238 2.3312 -0.6896 -2.4499 -3.2092 -1.4312 0.5151 0.7177 -2.0784 -6.9417 0.7230 1.2917 0.7776 -4.5616 -0.0830 -2.6570 2.2439 -2.0970 -0.0448 2.4494 4.5650 1.2944 0.0179 -3.3630 1.0711 5.4110 4.6858 1.4388
-2.3835 -1.1661 -4.4474 -1.5565 -0.5385 -0.6053 2.0795 -1.6602 0.7213 1.1558 -0.1138 -7.8145 1.0275 0.9070 2.1068 -4.1955 0.7878 -1.2753 3.2849 -5.5081 0.3900 3.5021 4.1388 2.2365 0.6405 -2.2624 2.0637 6.3867 6.4288 5.1977
-1.5674 -0.8821 -3.3427 2.8096 -0.4899 0.5281 3.6308 -0.6917 0.8930 1.8733 -0.4323 -5.3503 1.4987 0.7604 2.7967 -1.9372 1.8021 0.2987 3.8317 -7.0995 1.9026 5.1687 4.0170 3.2319 2.3145 -0.5909 3.5281 2.2832 3.8476 5.8503
-1.1923 -0.9712 -1.0539 11.6148 -0.5475 -0.0625 0.6607 0.3621 0.8810 2.0555 -1.5093 -0.6086 1.9216 0.8653 2.5721 -0.3491 2.7726 1.2802 3.4316 -4.5652 4.0952 6.0788 3.6164 3.6257 2.7914 -0.2638 3.0539 0.0409 1.5542 3.0288
-1.5326 -0.3864 -1.8032 12.3305 -0.5865 -0.5621 0.0908 0.9587 0.6405 1.8684 -0.8641 2.4589 2.2394 0.9390 2.5053 2.0648 3.4795 1.4174 2.9046 1.2208 6.2240 6.3135 3.6114 3.9817 2.9888 -0.3038 2.2829 3.8358 3.4638 1.5887
-1.0347 1.0699 -1.4946 6.4538 -0.6528 -0.0710 2.5437 1.9601 0.4890 1.8332 0.2816 2.5526 2.9998 1.0514 2.7378 4.3297 5.1623 1.1314 2.6058 3.1361 7.9392 6.8299 4.5227 3.9541 3.9069 1.4344 3.7676 8.6000 6.9767 4.6468
0.6565 1.4351 4.4892 4.2905 -0.8387 0.0235 2.0903 3.4818 0.7021 1.7686 -0.2099 0.1838 4.3536 1.4137 2.4905 2.1666 7.2607 1.6571 1.9826 -1.3256 8.4774 7.0300 4.9301 2.9297 4.0925 3.1540 4.6267 7.2357 6.6710 7.4486
1.2918 0.0879 8.5100 5.2678 -1.0278 -1.1479 -1.1389 4.4601 1.0050 1.4670 -1.4238 -1.7641 5.1832 1.8287 1.8150 -1.6267 7.5057 3.1275 1.3856 -3.9997 7.9783 6.4297 4.2116 2.2569 3.5482 3.0043 2.8118 2.0737 3.1762 5.8624
0.5249 -0.5285 5.7225 2.6399 -1.0155 -2.3372 -1.3637 4.6070 1.1108 1.2975 -1.8295 0.0558 4.8316 1.8248 1.5101 -0.3555 6.3921 3.2859 1.5696 -0.1641 7.8812 6.2428 3.6399 2.9178 3.8618 3.0509 1.8368 1.5357 2.3302 4.0151
0.5715 0.9102 3.9573 -1.3121 -0.8761 -2.2127 2.3049 4.4146 0.9686 1.7331 -1.2225 2.1788 4.2184 1.4726 2.0979 4.4407 5.7713 1.3765 1.8489 4.5398 7.5771 6.5791 3.7023 3.5095 4.6742 3.4437 2.6055 5.7877 4.9111 5.3920
0.9720 2.1870 5.1423 -1.5235 -0.8733 -1.3890 4.3166 3.8221 0.3637 2.4149 0.0780 0.1023 3.7744 1.4263 3.1173 6.9744 5.1268 0.3019 1.7380 4.9345 5.5294 6.1959 3.9606 3.4288 5.1776 2.1076 2.3908 7.5129 6.3349 7.3540
-0.7608 1.5128 0.6862 -0.3626 -0.9211 -0.7880 1.9890 2.3075 -0.5553 2.3117 1.0147 -1.0396 2.5832 1.6719 3.5133 7.1847 4.0656 1.5490 2.2666 2.6923 3.5142 5.3482 4.4327 3.8693 5.9627 1.2327 2.2027 5.3972 5.6008 8.2352
-3.1520 0.4528 -7.7650 -0.4013 -0.6514 0.0695 -0.0624 0.1279 -0.9511 1.3342 0.6000 2.3474 0.5728 1.3203 2.8453 6.9892 3.4788 2.3340 2.9689 1.6162 2.6240 4.3995 4.2927 4.1392 6.4177 2.3253 2.8576 3.8091 4.9363 8.5737
-2.6242 0.5728 -8.2737 0.1005 -0.1365 0.9938 0.5022 -1.3158 -0.6620 0.3433 -0.9632 2.6790 -0.9553 0.3116 1.2920 4.8671 2.4219 0.6742 1.7551 2.0215 -0.1505 2.4201 2.3278 2.2599 4.7534 1.0243 0.9720 3.6129 4.3513 7.4304
-0.4445 0.8356 -1.4718 0.6343 0.1152 0.7072 -0.6878 -1.3868 -0.6766 -0.3415 -2.8750 -3.0235 -1.4926 -0.2043 -0.5700 0.9349 -0.0426 -1.3677 -0.8162 1.1365 -4.7328 0.0021 -0.0256 -0.7586 1.2158 -3.2410 -2.9573 3.1974 3.0407 4.6237
-0.3283 0.4665 0.0221 -0.8783 0.0744 0.1347 -2.4154 -1.3972 -1.3496 -0.6250 -3.4113 -7.1933 -2.0312 -0.0173 -1.4684 -1.0345 -2.3502 -2.1064 -2.5228 -1.4141 -6.9752 -1.6089 -0.6821 -2.6474 -2.4451 -5.3819 -4.7146 1.6235 0.7025 0.9998
-1.3726 0.5110 -5.6889 -2.6174 0.2998 1.4544 2.1396 -2.3931 -1.8705 -0.1853 -0.9408 -7.4838 -3.3990 -0.3775 -0.8044 -0.3085 -4.0988 -2.9790 -3.5783 -2.8148 -7.7832 -3.8084 -0.8559 -3.8905 -5.1790 -6.1860 -5.3918 -2.3571 -3.2855 -3.6895
-0.4749 1.4529 -7.6912 -1.5932 0.8231 3.6518 7.8492 -3.5393 -1.9840 0.5927 2.3982 -8.7219 -4.8717 -1.4551 0.2246 0.1657 -6.2993 -4.2970 -4.6953 -2.8661 -10.9580 -7.2727 -1.8850 -5.2841 -6.3379 -9.6214 -7.6612 -6.8236 -6.7890 -7.2534
1.7777 2.5959 -1.2645 1.0483 0.9705 4.1526 4.3893 -3.8095 -2.1622 1.0862 2.7435 -11.8646 -4.9476 -1.8271 0.5318 -0.2208 -7.7307 -3.9993 -4.7706 -3.7047 -14.3475 -8.8614 -2.2092 -5.6285 -5.8162 -12.4983 -9.1575 -6.5428 -5.9361 -5.6965
2.8619 3.3346 5.5042 0.7513 0.6122 3.4607 -1.3851 -3.3993 -2.1782 1.4318 1.0912 -14.0072 -3.5709 -1.1750 0.7066 -0.4067 -7.3640 -2.4739 -3.7385 -3.5336 -14.3237 -7.0807 -1.7744 -5.0978 -4.8161 -10.7599 -8.2377 -2.2424 -2.4915 -1.4231
2.0680 3.0678 2.9672 -3.3021 0.3973 3.2030 1.0287 -2.5604 -1.5205 1.6287 0.8581 -13.1988 -2.2981 -0.7540 1.3762 -1.2300 -6.7409 -2.2993 -3.1519 -0.4867 -12.5583 -5.2850 -2.7656 -5.6140 -4.6027 -7.5564 -7.3653 -1.5813 -2.6711 -1.3204
0.3092 1.4834 -7.5704 -4.0073 0.6162 2.5081 3.1138 -1.1997 -0.6378 1.1100 0.4244 -9.0402 -2.0538 -1.0900 1.5202 -2.8350 -6.6357 -3.4149 -3.3758 -0.5041 -11.4875 -5.7304 -4.2497 -6.9171 -5.5619 -7.1026 -7.9265 -7.1759 -7.4517 -5.5039
-1.0668 -0.3413 -13.4517 3.0536 0.8526 0.8162 -3.1036 -0.8236 -0.3714 -0.0102 -2.9933 -4.0742 -2.5085 -1.4390 0.1357 -3.2301 -6.5312 -3.9757 -3.7518 -7.6110 -10.3585 -6.2433 -3.6530 -7.1628 -7.3646 -8.5680 -8.7001 -11.9090 -10.9537 -7.8166
-1.3204 -0.9874 -7.5273 9.2820 0.7160 -0.0142 -6.9991 -2.9051 -0.8310 -0.7416 -6.0486 -3.2202 -2.9466 -1.1719 -1.5351 -2.6911 -6.6127 -3.5600 -4.0891 -13.1512 -8.2554 -5.1539 -2.0643 -6.3976 -8.7099 -8.9315 -8.3707 -9.6248 -9.2098 -6.5147
-0.9569 -0.6962 1.1824 5.8363 0.2593 0.2709 -2.7584 -4.8987 -1.5101 -0.5203 -5.3756 -7.2265 -2.5212 -0.3621 -1.7094 -3.7440 -6.2118 -2.3976 -4.0304 -10.6499 -5.8473 -3.9187 -1.5254 -5.7053 -8.4023 -7.5357 -6.7630 -4.0911 -5.2047 -4.9194
-1.0814 -0.7977 3.1575 -1.4435 -0.3139 -0.4672 -1.1561 -4.1492 -1.8609 0.2549 -4.4615 -10.4656 -1.0722 0.7192 -0.7011 -5.2651 -3.7026 -0.6185 -2.6385 -6.6795 -3.3799 -2.9669 -0.7289 -4.5249 -6.5598 -5.7817 -4.6776 -2.3604 -3.6004 -4.2510
-2.1821 -1.6711 0.4079 -3.4582 -0.7779 -1.9563 -5.7092 -2.7694 -1.4165 0.7756 -5.8316 -9.0596 0.2543 1.6422 0.1872 -4.5562 -0.2447 0.6017 -0.2837 -3.9499 -0.0497 -0.9512 1.3411 -2.2496 -4.2184 -3.8611 -2.7104 -4.5965 -5.0410 -5.2694
-2.8459 -2.2431 -2.7990 -1.4900 -0.6610 -1.5439 -6.1216 -2.2897 -0.1776 0.4196 -5.6404 -5.3020 0.2286 1.4065 0.3947 -3.9828 0.5167 -0.3283 0.1898 1.8660 3.1733 0.4543 1.8422 -1.0436 -3.3300 -1.7931 -1.4617 -6.1802 -7.0834 -9.8673
-1.1369 -1.3256 -4.0107 1.9563 0.1668 0.7752 -0.6212 -1.0090 0.9547 -0.6596 -2.8095 -2.4541 -0.8628 -0.2681 -0.3191 -5.4026 -1.8308 -2.8501 -2.6232 4.9096 3.5279 -1.3581 -0.6746 -2.6728 -4.7981 -1.5311 -1.7986 -4.9833 -7.0343 -13.4585
1.4579 0.5543 -1.6001 8.0141 0.8244 2.2720 0.9238 0.3767 1.1973 -1.5138 -2.0896 -1.6808 -1.3202 -1.6031 -1.7846 -4.8830 -3.1293 -4.1167 -5.2977 -1.4304 1.5381 -3.5297 -2.3458 -4.7320 -6.0813 -2.8832 -2.5005 -2.7072 -4.7263 -9.7152
1.2792 1.3603 -1.3015 11.1352 0.6251 1.9784 -2.6730 -0.0982 0.9601 -1.6058 -4.2787 -2.0787 -0.4075 -1.1759 -2.9602 -1.9244 -0.8571 -2.8132 -4.7735 -8.2100 0.9255 -2.4190 -0.8570 -4.9083 -5.1145 -2.2515 -1.3596 -2.4045 -3.5087 -3.5516
-1.1382 0.8013 -7.8937 5.2372 0.1612 1.3902 -3.1699 -0.7944 0.8739 -1.2884 -5.3604 -1.7234 0.6487 -0.1697 -2.9215 -0.9338 2.6289 -0.9147 -2.9750 -7.8517 1.9690 -0.5342 0.6552 -4.4893 -3.6444 0.6698 0.6163 -4.0751 -4.5265 -1.6900
-1.4023 1.0482 -10.8548 -2.7682 0.0030 1.0929 -0.3602 0.2828 0.8304 -0.6894 -5.0332 -1.8722 1.2717 0.1529 -1.7859 -1.3537 4.6087 -0.0718 -2.1424 -5.1644 1.6850 -0.5147 1.0052 -4.2032 -3.1617 2.3188 1.4507 -3.3158 -3.8926 -0.7551
1.0175 2.3703 -2.3023 -4.3318 -0.1536 -0.0035 -0.4624 1.7229 0.6031 0.2146 -5.6602 -3.5105 1.8979 0.3709 -0.5356 -0.7927 5.1537 0.3816 -1.7695 -2.6248 0.7069 -0.0987 2.5960 -3.1492 -2.7344 2.5984 2.2722 1.0168 -0.6280 1.3939
2.1076 2.6517 5.6128 -1.4744 -0.3693 -1.7906 -1.9892 1.5075 0.1748 0.7854 -5.8746 -2.1975 1.8208 0.7748 0.2048 -0.6288 4.9402 0.7848 -1.5967 1.6185 2.2121 1.6671 4.4472 -2.0839 -1.6573 3.9986 3.9218 3.9481 1.1950 0.9982
0.9238 2.1700 3.3614 1.9664 -0.3379 -2.3420 0.0663 0.4490 -0.4049 1.0031 -3.1874 1.4458 1.1566 0.7671 1.2702 0.3844 4.2475 0.4780 -1.3197 5.9083 4.7000 2.5697 4.2864 -1.4598 0.0928 5.0460 4.4781 3.3830 0.6274 -0.9306
0.4971 2.8335 -0.4152 4.6341 -0.2999 -0.9873 2.5265 0.8512 -0.6790 1.7921 0.0954 0.0138 1.8680 0.6267 3.0465 4.3366 4.2379 0.0377 0.5236 8.3939 4.4512 2.5182 4.2072 0.2707 2.3711 3.7398 3.9252 2.8125 0.7348 -0.2396
1.5705 3.7206 1.9392 4.7549 -0.4917 0.6438 0.4623 2.3901 -0.2980 2.5782 -0.0513 -3.1198 3.2507 0.8440 3.7397 6.3320 5.5537 0.5195 3.0517 8.4729 3.3036 2.6235 5.5772 2.5259 3.8087 3.0217 4.7148 4.6074 2.8720 2.4846
1.4220 2.8581 3.5662 3.9347 -0.4865 1.3167 -2.5195 2.2819 -0.0249 1.7812 -2.1911 1.4668 2.3587 0.8267 2.6248 2.5300 6.2024 0.9633 3.2866 5.8709 4.7007 1.7611 5.5656 2.7398 2.9033 4.8423 6.1855 7.7408 5.7735 3.9991
-1.0706 1.2642 -3.5291 5.0382 -0.0888 1.7508 -1.8243 -0.0023 -0.6113 0.2138 -1.8959 8.0672 -0.0630 0.1940 1.7666 -1.3976 4.1492 -0.0158 1.4753 3.7173 6.1476 -0.6150 3.3026 1.3968 0.7423 5.5685 5.3314 9.8673 7.3932 2.9484
-2.3097 1.3121 -10.1688 6.0266 0.2625 2.8238 -0.2625 -1.6602 -1.2401 0.0532 0.2763 5.0002 -0.9080 -0.4656 2.0551 -0.1283 0.8052 -1.5497 0.5417 4.2331 4.2578 -2.5387 1.3924 0.9739 0.0949 2.6936 2.2476 8.5780 6.2145 1.0689
0.3012 2.7299 -3.7042 4.4468 0.2801 3.8551 -0.2144 -1.1646 -1.0487 1.2086 0.9478 -4.3071 -0.4488 -0.6539 2.3248 3.0962 -1.1049 -2.4255 1.0115 4.1855 1.0718 -2.8319 0.9711 1.6044 1.5746 -1.2098 -0.5315 4.2123 3.2832 1.0555
2.2496 3.2721 4.8720 1.2906 0.0612 4.0328 1.8156 -0.9545 -0.8340 2.2198 1.0453 -8.3674 -0.9561 -0.3298 2.7163 4.2249 -1.1822 -2.9644 1.3192 1.6526 -0.6354 -2.3245 1.0129 2.0738 2.9874 -3.3492 -1.7241 1.4319 2.1534 3.1681
0.1589 2.5674 1.9382 -2.2158 -0.1951 3.8653 6.0130 -2.7127 -1.2093 2.6736 2.2372 -5.7428 -2.0088 0.1836 3.7141 4.1278 -0.4694 -3.0431 1.1525 -0.0520 -1.4917 -1.5219 0.4862 2.2928 2.8223 -3.5664 -1.6947 3.1357 4.0481 5.3828
-1.2672 1.9186 -1.5589 -4.9357 -0.2616 3.2910 5.9267 -3.6222 -1.2443 2.4142 1.4983 -3.7261 -1.5565 0.3001 3.7594 3.4963 0.4312 -2.0516 1.1475 1.9318 -2.0145 -0.2332 -0.7625 2.3943 2.2226 -2.6353 -1.3960 5.4373 5.4125 5.6687
0.0859 1.1736 1.0871 -4.7359 -0.1180 1.4108 0.4479 -2.0451 -0.5192 1.2041 -2.3735 -4.4781 0.1639 0.0141 2.0066 1.5147 0.8551 -1.0886 1.1170 5.0276 -1.1275 0.9802 -1.5971 1.8620 2.5073 -1.4099 -1.5436 3.6423 3.2984 3.6713
0.3333 0.0504 0.1579 -0.7579 0.0276 -0.1796 -2.1096 -0.7302 0.1060 -0.0570 -4.2868 -4.6742 1.2054 -0.1705 0.1932 -0.1257 -0.1353 -1.5496 0.1900 4.6443 -0.0264 0.8715 -1.3668 0.3856 2.5055 -1.1633 -2.1343 -0.9163 -0.5654 0.8173
0.1271 0.2939 -2.0842 3.8722 0.2004 1.0835 2.1049 -0.8095 0.2917 -0.3979 -1.7498 -5.3695 0.9218 -0.4199 -0.4678 0.3849 -2.5943 -2.6678 -1.9136 2.2008 -2.0463 -1.3565 -1.5768 -1.8517 0.5108 -2.9122 -2.9416 -3.7857 -3.2664 -1.9638
1.4293 1.9576 -1.9313 4.4650 0.5800 3.0633 4.9928 -0.9874 0.3586 -0.5020 0.2150 -6.8734 -0.2180 -1.1272 -0.8985 1.1676 -4.7647 -3.0203 -4.0355 1.8375 -6.3472 -4.8432 -3.0115 -4.3370 -2.3662 -5.4665 -3.7763 -3.9000 -4.3241 -4.3079
0.7169 2.1678 -9.1847 1.7773 0.9942 1.7856 0.3593 -1.8070 0.2210 -1.3163 -2.0954 -3.7486 -1.5291 -1.8225 -2.0343 0.2867 -4.5295 -3.0450 -5.0077 0.9019 -7.8405 -6.7305 -3.8729 -6.1416 -3.9816 -5.9515 -4.1041 -3.6314 -4.6184 -4.8021
-1.5536 0.7901 -17.0717 1.1302 1.0891 -0.7791 -4.3819 -2.9103 -0.1364 -2.0331 -5.0525 0.9610 -1.4615 -1.9059 -3.1759 -0.9736 -2.5914 -3.7865 -5.3979 -3.8542 -5.6957 -4.9751 -2.8863 -6.4804 -4.5944 -4.1674 -3.5034 -4.3198 -4.8934 -3.6107
0.0249 0.5623 -7.8919 3.2025 0.8007 -0.2321 -1.6497 -1.6052 -0.1933 -1.5018 -4.7851 -2.2224 0.6977 -1.4378 -3.0152 -1.4204 -1.4716 -4.1053 -5.6883 -7.8057 -4.1202 -1.4492 -0.9463 -5.6161 -5.1809 -2.6421 -2.1954 -5.1472 -5.4372 -3.0966
3.5705 1.4602 6.9004 4.2236 0.4498 2.0974 2.2515 1.1894 0.2206 -0.6451 -3.5311 -8.1735 2.6285 -0.8905 -2.1441 -2.4281 -1.4244 -2.8160 -5.3506 -6.9728 -4.3299 0.2223 0.1405 -5.1391 -5.5185 -1.9406 -0.8433 -4.5353 -5.3260 -3.4924
3.5177 1.8619 6.0218 3.6698 0.4874 3.1072 0.8214 1.1365 0.4735 -0.8639 -3.8173 -6.4086 1.7214 -0.9540 -2.4690 -4.5434 -1.5804 -2.1802 -5.4528 -4.9370 -4.5136 -1.0475 -1.1700 -6.4636 -5.9346 -1.7884 -0.5763 -2.0812 -3.8067 -3.5240
1.1472 2.0364 -4.1390 2.2103 0.8939 3.9096 -0.5326 -2.3151 -0.0923 -1.2939 -3.5121 -2.4466 -1.2760 -1.7059 -3.3767 -5.6659 -2.8476 -3.8904 -7.1695 -5.8664 -4.9435 -3.6067 -4.0261 -8.3223 -6.9038 -3.5710 -2.0438 -0.5259 -2.5935 -3.6860
-0.1070 1.9135 -8.1973 -1.7217 1.1162 5.1878 1.6089 -5.4012 -1.3019 -0.8468 -2.0001 -4.7724 -3.7921 -2.1350 -2.8533 -5.2645 -5.5768 -5.5460 -8.3930 -8.5139 -5.7483 -5.5665 -5.6512 -8.3133 -7.6508 -6.3262 -4.0758 -2.6928 -3.8737 -5.0163
-0.4211 0.8267 -6.1432 -4.5985 0.9829 4.8585 2.4219 -5.8463 -2.1707 -0.6856 -2.1833 -9.1760 -4.9297 -1.7902 -1.9865 -4.9986 -7.9532 -6.0378 -7.3890 -9.3210 -5.0973 -6.3895 -5.5610 -7.0791 -7.9254 -6.8887 -5.1180 -6.4726 -6.8426 -7.4384
-0.6017 0.2584 -3.7554 -0.9970 0.8772 3.5959 1.7830 -5.3959 -2.1554 -1.3757 -2.9735 -10.2808 -5.7367 -1.4669 -2.2199 -3.9848 -8.8080 -6.9547 -5.7125 -7.5612 -3.5586 -6.8133 -5.0264 -6.4430 -7.9146 -5.6909 -4.9495 -6.8741 -7.8335 -8.8394
-1.0116 1.3664 -3.2981 1.9025 0.8434 4.2312 3.3217 -6.6166 -2.0771 -1.1875 -0.9550 -9.7998 -6.9397 -1.4264 -1.4709 -0.6810 -8.8889 -7.2213 -3.9579 -4.3929 -3.7576 -7.3694 -3.7455 -5.1766 -6.2956 -4.8517 -3.8685 -2.4151 -4.2653 -6.1190
-1.9684 2.4339 -5.1204 -3.6620 0.6036 5.8516 3.9027 -8.3364 -2.5661 0.2981 1.3144 -10.2581 -7.5683 -1.1037 1.0306 2.4105 -9.0286 -5.5026 -1.3087 0.5257 -5.1759 -7.5787 -1.7181 -2.0396 -2.3184 -3.6861 -2.4015 2.7837 1.1476 -0.6462
-2.8403 2.1117 -8.4244 -7.4683 0.2704 5.5245 1.3827 -7.5305 -2.6724 1.3260 0.5375 -10.1967 -6.6363 -0.5627 2.4726 3.0698 -8.5428 -4.5180 0.7364 5.6743 -5.0449 -7.1202 -0.1757 0.7559 1.9325 -2.0698 -1.5456 3.5083 3.0613 2.1803
-3.6054 1.0354 -11.7890 -2.0781 0.0872 3.6818 1.8636 -5.4874 -1.8492 1.3904 0.0500 -5.1744 -5.2901 -0.2161 2.3244 3.4810 -6.2448 -5.6009 0.9923 6.4570 -3.0217 -6.2918 1.2126 1.6357 4.1477 -1.6693 -1.3356 0.2520 1.4073 1.6153
-4.3768 0.1096 -12.1483 1.9774 -0.0122 2.7290 6.5600 -4.9277 -1.1510 1.2457 2.0274 3.2423 -4.6676 0.0231 2.4846 5.0639 -3.3973 -5.9510 1.2689 4.1510 -1.1899 -5.0971 2.7542 2.1261 4.6117 -1.5323 -0.8284 -0.9910 1.1127 1.8961
-3.4436 0.1630 -7.8345 1.3263 -0.0257 2.9159 7.8432 -3.9456 -0.9828 0.8343 2.6497 5.4911 -3.5746 0.0654 2.3886 5.8159 -2.6335 -4.6123 2.1243 5.2446 -0.9436 -3.6955 2.6216 2.9604 5.0956 -0.1496 -0.1680 1.8512 3.3973 3.9512
-1.0463 1.1451 -4.5604 4.0703 0.1582 2.8950 4.5685 -1.4880 -0.6692 0.3236 0.6233 1.0302 -1.7012 -0.3634 1.1307 5.3718 -3.2599 -3.6049 1.7685 8.5768 -1.6255 -2.9016 0.8354 3.2031 6.4270 0.5485 -0.0891 3.3138 4.4073 5.1741
-0.0160 1.6985 -5.6421 5.8040 0.3047 2.4419 3.5893 -0.6277 -0.3776 0.6548 -0.3833 -0.4843 -0.9177 -0.7622 0.5505 5.8849 -2.7137 -3.5771 0.2768 8.2387 -1.8034 -2.5395 0.1724 3.1317 7.8616 -0.2564 -0.1300 0.1216 2.5078 5.0721
0.2593 1.6530 -3.0346 -1.0717 0.1442 2.4166 6.3161 -1.0120 -0.4152 1.6437 1.0757 0.8544 -0.9838 -0.5403 1.7045 7.1135 -1.3096 -3.8268 -0.5181 5.9406 -1.0203 -1.3682 1.0354 3.3453 8.2441 -0.0834 0.2792 -3.0124 0.5551 4.9519
2.0001 2.1977 5.6970 -6.5380 -0.1207 2.6997 7.0141 0.4682 -0.0666 2.0628 2.2777 -0.4849 0.2455 -0.0827 2.7436 6.8471 -0.0819 -4.0367 -0.1682 6.2619 0.2941 0.3169 1.6428 3.0685 7.4330 1.3344 0.7592 -1.2776 1.2116 5.1740
3.5707 3.0621 10.1187 -2.1912 -0.2294 2.2761 2.6824 2.8135 0.7586 1.6771 1.0774 -0.8503 2.4203 0.1060 2.1121 5.1513 1.7474 -3.6557 0.3862 7.8058 1.4010 0.9741 2.1575 2.1781 6.5073 1.8623 0.9742 3.2067 3.7993 5.7306
3.5089 2.9384 7.7790 1.1523 -0.2488 1.6801 -0.4088 4.1531 1.1211 1.3716 -0.5836 2.1015 3.6954 0.1407 0.7559 3.1700 3.6650 -2.7036 0.0929 6.7267 1.6433 0.7521 2.8926 1.5998 5.9696 1.4879 0.7956 4.8902 5.2934 6.4320
3.4930 1.8872 7.0869 -2.6985 -0.2255 1.9668 4.3889 5.2360 1.0701 1.3478 -0.0107 4.1565 4.1466 0.0845 0.0730 1.1867 4.2795 -2.6301 -1.3150 1.8150 1.9754 1.1331 2.2826 0.9300 4.5206 1.5134 0.3940 2.0074 3.5797 5.9380
4.0477 1.0801 9.2493 -2.1842 -0.0910 1.3181 8.5846 6.0125 1.6396 0.5912 0.2055 6.0823 5.0104 -0.1475 -0.6871 0.5173 4.8795 -3.7273 -2.4919 -3.7629 4.1037 2.5160 0.5306 -0.5686 1.9359 2.5354 0.9497 -1.1447 0.4855 4.0761
4.4663 1.1752 11.0080 5.3730 0.0120 -1.8622 1.0473 6.1808 2.9380 -1.0901 -3.3482 9.9567 6.4635 -0.2615 -2.5018 1.8113 6.8391 -4.2373 -2.2088 -4.4748 6.8439 4.2263 0.0783 -1.6829 0.9205 5.1364 3.0833 0.0618 0.0026 3.7231
5.2679 1.7835 14.4934 7.3068 -0.1033 -4.4810 -7.2412 7.0079 3.9808 -2.1315 -6.5750 11.2567 7.4723 -0.0127 -3.7082 2.4612 8.2663 -3.7331 -1.8602 -0.5394 7.3119 5.4538 1.1152 -1.3943 2.2559 8.6781 5.2267 4.2410 2.7109 6.1549
5.5573 2.0405 16.7058 3.8225 -0.2360 -3.6479 -1.1590 7.5356 3.9478 -1.7531 -4.7413 8.3532 6.8304 0.1787 -3.0453 1.0759 7.3254 -3.8742 -3.3985 0.8389 5.4784 5.1454 1.3724 -1.0240 2.5566 10.3180 5.6094 6.4341 4.9375 8.0275
3.2841 1.7377 8.6343 5.0185 -0.0223 -1.2778 9.6896 5.0225 2.7801 -1.1517 -1.2256 6.5582 4.1874 -0.2483 -2.3853 0.2071 5.0479 -4.9412 -5.9611 -2.9372 3.1819 2.7610 -0.3301 -1.8311 0.4594 8.5708 4.2725 4.5677 3.9721 6.8219
0.6062 1.8593 -3.4927 5.7038 0.4896 0.6910 10.7477 1.0291 1.1979 -1.1500 0.0839 7.0317 0.8386 -1.1561 -2.9728 1.3391 2.8205 -5.2962 -7.5333 -5.3985 1.0509 -0.1947 -3.0429 -3.2470 -1.4580 5.8744 2.3681 1.3759 1.2624 4.1560
1.6645 3.1450 -2.3075 -0.0925 0.8926 2.6215 5.9593 -0.5391 0.2937 -1.3667 0.0747 5.2187 -1.0667 -1.8788 -3.7585 2.2078 0.9142 -4.5298 -7.9666 -2.5974 -0.2907 -1.4556 -4.7166 -4.5045 -2.2021 5.0365 1.2006 0.9750 -0.1098 2.0204
4.6155 4.1816 8.9596 -2.1483 0.9343 3.5348 1.9089 -0.0988 0.4379 -1.6508 -1.5799 1.2690 -1.0982 -1.9547 -4.4106 0.4173 -0.1936 -3.7245 -7.9934 0.0100 0.0772 -1.1099 -3.9410 -5.3324 -2.8045 5.3877 1.2106 3.0302 0.4470 0.9867
3.6905 2.7556 8.9002 2.6445 0.6965 2.3756 -1.8346 -0.2622 0.9098 -2.1002 -5.0942 0.8130 -1.0238 -1.4161 -5.1724 -3.0626 -0.3807 -3.0764 -7.6963 -2.9409 1.2477 -0.7554 -1.8626 -5.4907 -3.4342 4.8825 1.0744 2.5633 0.2835 0.5716
-1.1452 -0.4381 -5.7867 3.0556 0.4973 0.7985 -2.7467 -1.0989 1.0902 -2.5578 -6.7431 4.6035 -1.8716 -0.8557 -5.5105 -4.9606 -0.6229 -2.1438 -7.4231 -8.2807 1.5092 -0.4448 -1.1446 -5.6095 -5.1077 3.4028 -0.3944 -1.8438 -2.7581 -1.6601
-3.6441 -2.0843 -14.6973 -1.6704 0.6053 -0.0933 -0.0096 -1.7163 1.1752 -2.9515 -5.7790 5.4710 -2.4099 -0.9796 -5.6413 -4.6136 -0.9887 -1.2393 -7.5864 -10.1795 0.4867 0.4580 -2.2632 -6.4796 -8.7299 1.8056 -1.7963 -4.8984 -6.4365 -6.3423
-0.8978 -1.1286 -6.1471 -1.9579 0.7903 -1.2500 -0.5032 -1.7520 1.3632 -3.1403 -6.2056 -0.5622 -1.3457 -1.4500 -6.2080 -5.1499 -0.5900 -0.8377 -7.3208 -8.9093 -0.7990 1.7372 -2.8883 -6.9459 -11.4085 1.0280 -0.7580 -2.6897 -6.4078 -8.7737
2.7145 0.0697 7.2220 1.8864 0.6588 -2.2582 -5.3485 -0.6626 1.3729 -2.9446 -7.9089 -6.8516 0.5438 -1.3189 -6.4115 -7.2945 -0.0937 -0.9810 -6.1631 -8.5855 -0.8346 3.2885 -1.7418 -5.8541 -10.9565 2.3641 2.3071 1.9486 -2.8729 -6.4173
3.2209 0.0673 10.8353 2.7381 0.4243 -1.5361 -5.1205 1.0040 0.9725 -2.5955 -6.8920 -6.7443 1.4132 -0.8248 -5.3653 -7.5202 -0.4766 -1.3847 -5.4923 -9.2730 0.2661 4.4464 -0.4551 -4.5650 -10.0862 4.6585 4.1570 3.9154 -0.8702 -4.4042
1.8298 -0.3232 6.6251 0.2507 0.4307 0.3852 2.4604 1.2921 0.2655 -2.1432 -3.2906 -2.5356 0.7094 -0.7576 -3.5880 -4.8804 -0.5354 -1.4594 -5.2302 -7.7065 1.1558 4.0098 -0.4002 -3.7956 -9.8476 4.8290 3.6677 2.3023 -2.0550 -5.9294
-0.1465 -0.6462 0.9496 -1.5252 0.4030 1.7371 6.6714 -0.6658 -0.4956 -1.2676 -0.1875 2.1108 -0.4755 -0.7322 -1.7078 -1.9537 0.6036 -0.9307 -2.8545 -3.8360 2.4525 3.3109 -0.5431 -1.7579 -7.1395 3.9182 3.8155 1.5543 -1.7838 -6.0852
-2.3735 -0.7149 -3.5360 -2.0763 0.0973 2.4022 3.0949 -2.8921 -1.0447 -0.1977 1.8776 5.3583 -0.8891 -0.2141 0.1523 1.0133 1.4849 0.1293 1.2988 0.2620 4.3864 4.2954 0.1822 1.6554 -2.1900 4.9193 5.6799 4.5814 2.0400 -2.0425
-2.2053 0.1995 -1.2992 -2.7870 -0.1798 3.0131 1.0986 -2.4844 -1.1848 0.6409 3.9510 3.8286 -0.2363 0.2428 1.7773 4.6205 1.5531 1.6059 3.4974 4.2426 4.4129 5.3483 1.1209 4.0641 1.2083 6.1538 6.1746 7.3902 4.9200 1.6630
0.3126 1.2619 6.3480 -1.8118 -0.2240 2.8122 5.5424 -0.3336 -0.9081 1.3477 5.7937 0.1760 0.4350 0.2057 3.0065 6.5027 2.1244 2.4611 3.1448 6.2320 3.2181 5.0434 1.4234 4.8853 2.5670 5.8542 4.8010 6.1740 4.4451 2.7054
0.1699 0.6735 5.7160 2.2433 -0.1963 1.1725 8.4660 -0.2120 -0.4727 1.7091 5.9018 2.4457 -0.0829 0.0922 3.5613 5.7393 2.9066 1.9948 2.8214 3.6316 4.5268 4.9485 1.1639 5.2705 3.5354 5.8372 4.1058 3.8214 3.6771 3.7333
-2.8885 -0.6962 -4.6644 4.9282 -0.2336 -0.5302 4.7038 -1.4332 -0.2280 1.3055 3.5311 7.6137 -0.8165 0.2632 3.0689 5.2932 2.4653 2.0536 2.9897 1.0933 6.2983 5.2822 1.0536 5.6129 4.2876 5.5532 4.0155 3.9891 4.4834 4.9979
-3.0513 -0.5396 -7.1177 2.7592 -0.3983 -0.9494 0.6068 -0.2451 -0.2673 0.8777 0.7759 5.9013 0.0984 0.6582 2.2430 6.6223 1.8259 3.6140 3.4082 5.0897 4.6750 5.2221 1.8434 6.5509 6.0906 3.8415 4.2777 6.3091 6.4300 6.1092
0.0130 0.7518 3.6752 -1.2701 -0.7146 -0.5369 1.4359 1.8298 -0.4548 1.3718 0.5962 0.3493 1.7003 1.1680 2.3953 7.9648 2.9004 4.0747 5.2823 10.7749 3.4275 6.1800 3.2355 8.5569 10.1148 4.1055 6.3017 9.1904 9.5348 9.7961
0.2283 0.7678 9.6918 -3.9915 -1.0347 0.0127 3.5607 1.1736 -0.7717 2.1532 2.7130 1.0593 1.7338 1.7143 3.4828 8.3134 4.9640 2.9783 7.7726 10.2091 6.7284 8.6687 4.1949 10.1013 13.0112 7.6263 8.0886 10.4102 11.5748 14.1285
-3.4179 -0.9460 1.2898 -3.8861 -1.0822 0.5988 3.4033 -0.5275 -1.2182 2.0540 4.4250 7.5591 0.5975 1.9548 4.1349 7.9248 5.9118 3.9185 8.1206 7.5392 10.3895 10.1525 4.1989 9.7513 11.5652 9.9292 6.5403 8.0751 9.3862 12.3276
-5.0839 -2.1435 -6.4355 -0.8897 -0.7490 0.6376 1.1190 -0.6044 -1.3524 1.0061 4.1408 11.5609 -0.0083 1.4751 3.1270 6.1460 5.0841 6.7655 5.9731 9.4911 9.6999 8.8268 3.0689 7.9801 8.4233 8.6095 3.5095 5.2318 5.7955 6.0008
-2.5925 -1.6883 -1.3885 -0.3123 -0.4160 -0.6343 -2.7145 -0.0872 -0.5952 -0.3267 2.2525 9.2021 0.2530 0.8135 0.7148 2.9254 3.6855 7.4013 3.6685 11.7917 6.7901 6.1352 1.6416 6.0341 7.2060 6.0182 2.2979 6.1835 6.0401 3.8582
-0.2846 -1.4228 7.2294 -4.2079 -0.5387 -2.6661 -4.7486 0.1390 0.6746 -1.3817 0.4448 3.5000 1.0378 1.0135 -1.3408 0.3194 3.0414 6.3819 3.1043 8.9072 5.0016 4.5924 1.7487 5.0146 7.0524 4.3978 2.7896 8.3138 8.2381 6.4104
-0.4224 -2.4592 9.3444 -5.1534 -0.7997 -3.9893 -3.0458 0.5713 1.2312 -1.9774 -0.1785 0.0436 1.6739 1.6080 -2.2677 -0.9137 2.8150 7.0005 3.3382 3.8880 4.3634 4.4204 2.7340 4.5382 5.5861 4.3338 3.1675 6.3980 6.9060 6.6649
-0.8289 -3.3753 7.6873 -1.3190 -0.6259 -4.2373 -3.1438 0.7365 0.7816 -2.3059 -0.7813 2.0118 1.2290 1.3701 -3.1755 -2.5678 2.4290 7.6357 2.1555 0.1617 4.6189 4.1315 2.0499 3.0357 2.9139 5.6434 2.6744 1.7139 2.6117 3.4151
-0.7336 -3.4031 6.2854 0.2956 -0.2996 -4.2922 -6.9017 0.4901 0.3453 -2.5575 -2.2438 5.9595 0.3690 0.7696 -4.1120 -4.5612 2.6842 6.1789 0.2121 -2.1328 5.5607 3.9069 0.5344 0.8649 0.3125 6.7444 1.9685 -0.5239 -0.1083 0.5424
-1.0923 -3.0252 4.9135 -0.9368 -0.2968 -4.3301 -7.4939 0.6119 0.2924 -2.6019 -2.6712 5.6919 0.6198 0.8028 -3.8460 -4.2265 3.5185 4.8635 -0.3660 -1.3382 5.1044 4.7832 0.7743 -0.4517 -2.0234 5.9688 1.5918 0.8103 -0.5336 -1.6200
-1.2219 -1.9685 3.8378 -1.0572 -0.3307 -3.6740 -4.2867 0.8676 -0.0690 -2.2676 -0.8230 2.2265 1.5160 0.9161 -2.8518 -1.2213 3.5777 4.3283 -0.1589 0.9925 2.7136 5.6370 1.7777 -1.2816 -3.6373 4.5414 1.2693 2.4400 -0.7037 -2.9532
-0.3830 -0.5595 3.7392 -0.4979 -0.1719 -2.6315 -3.7302 1.1039 -0.5827 -1.7462 1.1573 1.2389 2.0593 0.6090 -2.3624 1.3494 3.1565 3.1498 -0.1063 -0.5861 1.3112 5.2311 1.6262 -2.0384 -3.3126 4.8793 1.5571 1.6519 -1.2287 -1.2362
0.0699 -0.4147 3.2420 1.2826 -0.1688 -2.0994 -4.8421 1.9027 -0.4628 -1.3043 1.5746 2.9970 2.7065 0.5846 -1.9718 1.4308 3.2690 3.2847 0.5126 -4.1801 2.2714 4.8066 1.3752 -1.7490 -2.0961 6.5619 3.2591 -0.8886 -2.1912 0.5737
-0.8645 -1.2452 0.7388 5.7381 -0.3069 -1.7851 -2.4271 2.2919 -0.1858 -0.9312 1.8247 5.3715 3.0289 0.8472 -1.2753 0.4325 2.9797 5.5160 0.8681 -3.6015 3.5797 5.1474 1.7767 -0.7811 -2.4660 7.8314 5.0950 -1.3861 -2.6559 -1.3441
-1.3535 -0.9567 -0.8411 8.1584 -0.1509 -1.2524 1.2307 1.5170 -0.4498 -0.7529 2.7875 7.5565 1.9644 0.5194 -0.9590 0.4531 1.3537 5.8997 0.0389 -0.0572 3.7050 4.9129 1.5303 -0.4197 -3.6417 8.4955 5.6142 2.4186 -0.5460 -2.9330
0.1913 0.3301 2.6753 4.6288 0.1526 -1.1150 2.1053 1.1315 -0.6656 -0.9010 3.2763 6.0480 0.8933 -0.1200 -0.8739 1.6568 -0.2965 3.7605 0.3247 2.7512 2.8844 4.0692 0.9058 -0.1343 -3.1168 8.4336 5.5928 6.5756 2.4458 -1.2081
1.2067 0.3752 5.7683 -0.6349 0.1138 -1.3531 2.2032 1.2731 -0.4279 -0.9141 3.2264 0.6149 1.3266 -0.0705 -0.3910 2.4480 -0.5356 2.9897 2.5473 4.0780 1.9708 4.0664 1.6357 0.7714 -1.7271 7.1800 5.6955 5.6617 1.9987 -0.7039
-0.5973 -1.2035 -0.3081 -3.2114 -0.0690 -1.1560 2.5534 0.7869 -0.0068 -0.7295 3.1866 -1.5793 1.8947 0.3002 -0.4229 0.8890 -0.2586 3.9374 2.9230 1.3641 1.5392 3.8471 2.8007 0.9354 -2.2505 5.1291 4.8559 0.6535 -1.4022 -3.3815
-2.0075 -2.1408 -8.9132 -3.5844 0.1344 -0.7618 0.9418 0.7899 0.6685 -1.1475 2.4157 1.4797 1.3987 -0.0810 -1.7099 -2.0763 -0.9427 4.1533 -0.2893 -5.6875 0.7748 1.4089 1.7350 -0.7057 -4.7248 2.4495 2.7046 -2.5462 -3.1871 -5.0354
-0.1381 -1.1374 -6.4081 -3.2865 0.5047 -0.8340 -0.4154 1.5466 1.2285 -1.9263 1.5926 3.3764 1.0066 -0.8321 -2.6026 -2.7237 -1.6617 3.8535 -3.1087 -10.1010 -1.0414 -1.2111 -0.9090 -2.4446 -6.2875 -0.2377 0.8827 -0.8636 -1.4924 -3.1318
2.6092 0.2208 5.0887 -3.1216 0.4724 -1.2628 0.3333 1.6601 1.0666 -1.9165 1.9333 1.5048 1.6587 -0.8285 -1.8967 -1.1275 -0.8957 3.8938 -2.5112 -8.2696 -2.5911 -0.9389 -1.7678 -2.2346 -5.2217 -0.9718 0.6875 2.5235 1.2484 0.1836
3.8758 0.2407 12.5146 -2.5522 0.2200 -1.7538 -1.6097 2.3368 0.7475 -1.4463 1.5980 0.1104 2.4302 -0.3561 -1.1865 -1.3462 0.2140 3.8482 -0.7362 -5.8343 -2.8456 0.3919 -0.6235 -0.9826 -3.3958 0.1255 1.0798 2.7719 1.8340 1.6116
3.6092 -0.8953 10.5933 -1.1994 0.2095 -2.0279 -5.6234 4.0253 0.6850 -1.4919 -0.1095 2.8494 2.2546 -0.2797 -1.5921 -3.4032 0.2924 4.3685 0.0831 -6.6033 -2.4869 0.0347 0.0224 -0.5013 -3.1850 0.7036 0.6549 0.0999 0.2028 0.5306
1.8397 -2.1915 5.4817 -1.0765 0.2016 -1.7908 -3.8968 3.9259 0.4580 -1.6313 -0.3818 7.5010 1.8151 -0.2066 -1.8741 -3.1555 0.4840 5.9831 1.2229 -7.2127 -1.8407 0.0943 0.6080 -0.1415 -3.7824 0.6677 0.1699 -0.8643 -0.5600 -0.3981
0.2819 -2.3259 5.5109 -1.8889 -0.0847 -1.0360 1.1222 2.2585 0.4023 -1.2562 1.1999 8.4111 2.1892 0.3126 -1.2035 0.5672 1.4675 6.7712 2.9531 -4.4269 -1.0080 2.2556 2.7009 1.1887 -3.1616 1.4429 0.4897 1.5956 0.9164 0.5049
0.5237 -1.0935 8.6251 -0.0938 -0.2074 0.0962 0.5629 1.6511 0.6889 -0.8059 2.5721 5.9659 2.3692 0.4631 -0.1089 3.8092 1.9406 5.5572 3.6034 0.5794 -0.7169 3.4310 4.1405 2.4337 -1.4003 2.4771 0.2086 3.9301 2.3752 1.3489
0.6689 -0.7424 6.1656 3.3182 0.1208 1.1753 -1.9985 1.7368 0.5277 -0.7044 3.6777 6.8087 1.3670 -0.1959 0.8506 3.0154 1.6978 4.3388 3.5644 3.3299 -0.6061 2.4339 2.9752 2.7346 0.3219 2.7681 -1.3649 2.6297 1.9125 1.0731
0.2831 -1.9735 2.1520 3.9162 0.3878 1.4457 1.0259 2.4162 0.3382 -0.7935 4.4107 10.7283 1.1568 -0.7095 1.0936 1.1669 2.1367 4.9122 4.1164 1.5509 0.5789 2.5044 1.5368 3.1166 1.7035 3.1092 -2.0091 -0.9123 0.4331 1.5738
1.3899 -2.3803 6.1795 2.0866 0.1360 0.3285 4.0909 4.8288 0.9996 -0.8994 3.1005 11.1153 3.1711 -0.2932 0.3895 2.2710 3.9472 6.7738 4.5948 1.1237 3.1486 4.6555 2.0697 4.2454 2.7556 4.8353 -0.2279 -1.5082 0.2024 2.6687
1.8986 -1.9765 11.0298 1.2095 -0.4065 -1.8506 -0.0378 6.3660 1.4367 -0.9699 0.4298 9.5283 5.0319 0.6995 -0.4448 3.1294 6.4940 8.7811 4.6188 6.5313 6.8248 6.7835 3.8771 5.4780 3.1606 8.0517 2.4807 2.3158 1.9098 1.7261
-0.5770 -2.7347 7.2742 1.1026 -0.8046 -2.9568 -5.4796 4.7059 0.7783 -0.7735 -0.3788 11.5082 4.7644 1.5266 -0.6378 1.2946 8.2640 9.7439 4.8634 10.2512 10.2778 7.8703 5.7540 6.3626 3.0751 11.1190 4.4689 4.7194 3.0558 -0.4828
-2.2638 -3.2954 3.1771 -0.9033 -0.9157 -1.2070 -5.6168 3.1360 0.1171 -0.1284 1.4392 13.0546 3.7119 1.7946 -0.3335 1.0113 8.1764 9.0819 4.9485 6.4135 10.8268 7.4715 6.6279 6.8950 3.0446 12.0146 5.5493 1.7274 1.5181 -0.9989
-0.7549 -2.1288 5.6417 -5.0408 -0.7982 1.2969 -4.3937 3.5091 -0.1238 0.5147 3.1851 9.8549 2.6597 1.5381 -0.0324 2.6879 6.8910 8.1147 4.5226 1.4572 8.4169 5.3770 5.3820 6.6687 2.6124 10.8698 5.7021 -1.7160 -0.4550 -0.1918
0.6524 -0.9564 8.7282 -7.2451 -0.4980 1.7097 -4.1488 2.6866 -0.6719 0.4611 3.5504 7.3503 0.6706 0.9465 -0.1123 2.0670 5.2408 7.8606 4.1944 0.6359 6.6145 3.4417 2.6707 5.3002 0.9489 9.8367 5.3568 0.1018 0.3758 0.1490
0.8326 -0.5460 10.6307 -3.5527 -0.1664 1.2006 -0.8009 0.5795 -1.1906 -0.2041 4.0637 7.6476 -1.1443 0.3367 -0.4906 0.5039 3.3119 7.1394 3.6940 1.8220 6.5772 3.1908 0.6623 3.5965 -0.7471 10.0019 5.7441 4.7058 2.8598 0.2145
1.2448 -0.1120 12.2823 2.2044 -0.0749 1.5666 3.1031 0.5758 -1.2091 -0.7556 4.6371 5.2801 -0.8212 0.1785 -0.6184 1.0048 2.0821 5.4816 2.5047 3.6399 5.5950 3.3907 0.1526 2.8573 -0.5181 10.2517 6.4195 5.6927 3.2466 0.2402
0.1927 -0.4573 5.8686 2.7149 -0.1138 1.5701 1.3409 1.6079 -1.4348 -0.8782 3.4861 2.4492 -0.1257 0.3026 -0.3532 1.0997 1.9720 4.2151 1.2259 4.5669 3.4139 2.6190 -0.1760 2.7881 0.6027 9.5101 5.1619 2.1572 1.0416 -0.1701
-3.0629 -1.7940 -9.1595 0.3247 0.1630 0.1580 -1.7845 0.3034 -1.8809 -0.9028 1.6650 6.5257 -1.8002 -0.1504 -0.2853 -0.3776 1.0790 3.6626 0.2056 1.4855 3.0833 1.0066 -1.5368 1.9936 0.1527 8.1448 2.0701 -1.0297 -0.7492 -0.4127
-4.1821 -1.9576 -15.4471 1.4208 0.6259 -1.4614 -0.6300 -1.8892 -1.6652 -0.9688 1.1322 12.2388 -3.9497 -1.0501 -0.6930 0.0532 -1.2734 3.1576 -0.4586 -3.2422 4.3906 -0.7763 -3.3868 0.5370 -1.3990 6.8414 -0.1457 -1.1865 -0.8806 0.2131
-0.8237 -0.1623 -3.5905 2.6516 0.6464 -1.9222 -0.4104 -1.7916 -1.1207 -0.5906 1.0343 8.1829 -3.3374 -1.2058 -0.8179 2.2882 -3.3634 2.3876 -0.3066 -4.0857 3.4467 -2.2276 -4.2082 -0.3756 -2.3022 5.5120 -0.7453 -0.3238 -0.9394 0.7781
2.6817 1.1984 10.9339 -0.0469 0.2782 -0.9284 -3.4585 -0.5901 -1.1694 0.2953 1.3274 -1.7146 -1.7487 -0.5660 -0.0089 1.6155 -5.0496 0.7937 -0.1383 -1.6169 -0.6978 -3.8271 -3.7550 -0.8625 -3.3435 3.2305 -1.9813 -0.9529 -2.1879 -1.2325
2.4080 0.3188 12.1503 -2.0957 0.2387 0.7723 -2.3624 -1.1957 -1.6148 0.6961 3.6283 -4.2436 -2.7797 -0.3980 0.8035 -1.8306 -7.4414 -1.2941 -1.2599 -0.5832 -5.4974 -6.3722 -4.1132 -2.1714 -6.0004 -0.8775 -5.5637 -4.4820 -5.3384 -6.8122
0.6189 -1.0526 4.9358 -1.1608 0.6964 1.7988 2.8513 -2.9564 -1.8370 0.1180 5.7928 -0.4805 -5.1034 -1.1338 0.2664 -2.6165 -9.5708 -2.2116 -3.0904 -2.4117 -10.0564 -8.8089 -6.7739 -4.4216 -9.2199 -5.9704 -10.3225 -9.8325 -9.8590 -11.9462
0.5437 -0.6065 0.0287 0.4324 1.1011 1.4091 2.8702 -3.4002 -1.7243 -0.6104 4.3728 -1.2773 -5.2185 -1.8938 -1.1363 -0.3260 -9.7839 -2.0867 -4.5203 -3.9725 -14.3891 -9.5997 -9.3228 -6.2085 -10.7198 -9.4731 -13.0005 -12.1391 -12.0978 -12.3303
1.2394 0.5655 -1.6900 2.5912 1.1579 0.1775 -2.4415 -2.6614 -1.4274 -0.9405 1.7666 -5.0902 -3.8155 -2.0994 -1.9370 -0.0768 -8.4939 -2.5779 -5.3791 -1.9103 -16.1169 -9.3975 -8.9416 -6.3159 -9.9245 -9.4994 -11.6421 -9.2450 -9.9831 -10.5265
1.6135 0.3525 -0.4196 2.5539 1.1103 -0.7630 -4.5369 -2.1217 -1.0090 -1.1810 2.0692 -4.0547 -3.5197 -2.1025 -1.9951 -2.7251 -7.4980 -3.3061 -5.3820 1.8802 -14.1812 -9.5813 -7.2883 -5.0348 -8.3519 -6.9283 -8.5391 -6.2111 -7.2343 -10.7193
2.9386 -0.4903 6.3905 -3.2879 1.0828 -1.0525 -2.6805 -1.5196 -0.4409 -1.4556 3.4850 -2.1340 -3.8949 -2.1145 -2.0658 -4.3698 -7.7126 -2.8538 -4.4581 1.9012 -11.9159 -10.2981 -6.8071 -3.5949 -7.3576 -4.6712 -7.4504 -6.4948 -6.6404 -10.4672
4.0408 -0.6076 12.2358 -7.8605 0.9209 -1.4415 -2.8963 -0.9715 -0.1272 -1.6986 2.6112 -4.2011 -3.7745 -1.8016 -2.2946 -3.6940 -8.3849 -1.7875 -3.4185 -2.0014 -11.8473 -11.1468 -6.4812 -2.6267 -6.4943 -4.5908 -8.4907 -6.1416 -5.2439 -6.2932
1.8484 -0.8328 6.3290 -2.6839 0.7449 -2.3235 -5.9226 -1.8922 -0.6616 -1.9970 0.6274 -3.5222 -4.3654 -1.3449 -2.5638 -2.7236 -8.7600 -1.5262 -3.0445 -4.1926 -12.6825 -11.8079 -5.7541 -2.1620 -5.4931 -5.9326 -9.5661 -3.0626 -1.9707 -2.0397
-1.6814 -1.7045 -6.0789 5.7057 0.8461 -2.9784 -8.3595 -3.5304 -1.4738 -2.2285 -0.5606 1.2329 -5.8952 -1.4253 -3.0793 -3.1776 -8.9512 -1.9081 -3.5786 -2.9283 -13.3704 -12.0681 -6.1747 -2.5171 -5.8561 -7.1072 -10.4259 -2.0460 -1.3600 -3.1557
-1.8885 -2.1841 -8.7431 6.0157 0.9842 -2.8145 -8.8603 -3.4236 -1.5301 -2.1426 -1.4688 0.0164 -5.8833 -1.7218 -3.6138 -4.6741 -8.4303 -1.8508 -4.2248 -2.2786 -14.1617 -11.6171 -7.0448 -3.1811 -7.4961 -7.3868 -11.0169 -5.5172 -4.8345 -7.0903
0.5167 -2.0924 0.4587 -0.1487 0.7590 -2.0185 -6.8253 -1.9648 -1.3127 -1.7698 -1.6363 -6.2743 -3.9233 -1.3851 -3.3866 -5.0661 -6.5634 -1.1123 -3.5495 -4.1156 -13.8392 -9.7810 -6.5092 -2.6325 -7.4319 -6.7779 -10.0044 -8.7869 -7.2505 -7.3062
1.7616 -2.1337 8.8248 -3.1105 0.4498 -1.3914 -3.4532 -1.3220 -1.4970 -1.4694 -0.8810 -5.5467 -2.7549 -0.8356 -2.7722 -3.9828 -4.2579 0.1487 -1.8672 -5.2726 -10.9974 -6.4582 -5.5254 -1.2086 -5.1339 -5.4434 -7.6955 -7.3244 -5.2849 -3.6947
0.9404 -2.4383 7.3426 0.2547 0.3895 -1.8103 -3.2267 -1.1093 -1.1252 -1.5695 -1.8706 1.4068 -2.6599 -0.7355 -3.2074 -4.2982 -2.0686 2.0523 -0.7039 -3.6369 -6.9801 -2.5911 -4.9349 -0.5828 -3.6434 -3.3675 -5.5547 -2.5585 -1.6073 -1.2526
-1.3348 -3.2306 -2.5257 4.0366 0.2433 -2.5604 -5.3558 -0.2075 0.0942 -1.7413 -4.1727 4.3142 -1.2926 -0.4493 -4.1582 -7.0816 0.6971 3.9997 0.1651 -1.3370 -4.3672 0.9547 -3.2440 -0.1964 -3.4324 -0.8101 -3.2481 0.7814 0.5540 -1.2136
-3.4713 -4.4689 -9.7963 3.6778 -0.1208 -2.3894 -4.2904 0.4191 0.5542 -1.4665 -4.0358 3.3374 0.7169 0.3148 -3.8152 -9.5257 3.2593 5.3404 1.5375 -0.2221 -3.3632 3.6168 -0.6040 1.0762 -2.2103 1.4600 -0.6304 0.2319 0.6689 -1.2906
-2.5201 -4.8299 -3.6814 2.1481 -0.2664 -2.6127 -3.3846 0.3556 -0.0988 -1.1952 -3.2467 3.0437 1.0433 0.6619 -3.0326 -9.4271 4.1079 7.1666 2.7134 0.1024 -1.6061 4.9463 1.0853 2.2200 -0.4055 3.0608 0.7256 -1.8415 -0.3577 -0.8800
0.7465 -3.6411 9.2186 1.0810 -0.2037 -4.3208 -7.9764 0.6023 -0.4059 -1.4222 -5.0550 1.3221 0.6497 0.5208 -3.3216 -7.1350 4.2448 9.8214 3.2439 -0.6401 2.0945 5.3290 2.0522 2.8516 0.2097 4.0958 1.0990 -0.9717 -0.1079 0.2623
2.0643 -2.2112 13.6137 -2.0707 -0.3300 -4.9038 -10.8051 1.2172 -0.2147 -1.3948 -5.5849 -0.9902 1.2363 0.6788 -3.2437 -4.1900 5.2379 10.4781 3.5773 -2.3994 5.5788 5.5639 3.1277 3.9705 0.3382 4.5786 2.7736 3.1900 2.8654 2.5121
0.4836 -1.8371 7.7106 -4.2583 -0.4963 -3.1501 -7.2847 1.4851 -0.4713 -0.6164 -2.2472 3.0190 1.3840 0.9593 -1.7991 -2.3094 6.2944 8.2550 3.8819 -2.7922 6.9862 5.9150 3.3991 5.0750 0.9736 5.1000 5.6512 6.1014 5.5645 3.5474
-1.9643 -2.4403 -0.7287 -2.6650 -0.4554 -2.1593 -6.5479 0.6353 -0.9138 0.0551 0.4068 11.7360 -0.0311 0.9340 -0.5647 -1.6297 6.5008 7.2688 4.6385 -0.7504 8.1463 6.4006 2.7002 5.4914 1.9412 6.7465 7.6473 5.1858 4.9868 2.0038
-3.2322 -2.8529 -4.0032 -2.6446 -0.4832 -2.8496 -10.2180 -0.8563 -0.7897 0.0662 0.6909 13.2192 -0.6709 1.0483 -0.0055 -0.8845 6.4194 9.1305 5.8397 1.3602 10.1511 6.5851 1.9935 5.7943 3.1845 8.7662 7.9964 2.6587 2.8402 0.8460
-1.3327 -1.6323 2.2510 -3.6665 -0.6395 -2.4930 -8.0510 -0.0288 -0.2245 -0.0771 1.7801 4.7522 1.2211 1.3262 0.6997 0.0799 6.1611 9.8516 5.4815 1.5397 10.0436 5.5053 1.1219 5.2101 3.9385 9.0196 6.9893 1.6918 2.1416 2.4436
1.8598 0.7075 8.4523 -0.0453 -0.5250 -1.2436 -1.3226 3.4155 0.1937 -0.0747 2.9360 0.3173 2.9633 1.0507 0.8524 0.8272 5.3027 7.8750 2.5820 -0.0197 7.1852 3.2466 -0.3697 2.7750 2.9802 8.0106 5.2833 3.3753 3.3959 5.3503
1.5996 1.5281 2.4043 1.4049 -0.1401 -1.4787 -0.1300 4.6500 0.0625 -0.1977 1.4543 7.5015 1.7698 0.3124 -0.1947 1.2281 4.1476 5.8048 -0.6385 -2.0534 5.1356 0.9630 -2.3255 0.1244 0.1087 7.6265 3.5773 5.0855 4.0153 5.6102
-0.5897 0.1464 -5.1522 -5.2134 0.1421 -2.0964 -2.5970 2.3452 -0.2785 -0.6139 -0.5625 13.2059 -0.2385 -0.1961 -1.3891 -0.1040 3.0253 4.3642 -2.6020 -2.7506 3.7834 -1.2404 -4.6781 -1.7925 -4.4129 6.4332 1.1154 1.6934 -0.1516 -0.6337
0.9211 -0.7907 1.3981 -7.6011 0.3537 -1.1386 -3.1255 1.1670 -0.0733 -1.3173 -0.7431 7.9388 -0.3097 -0.5728 -2.2706 -3.3492 1.7781 3.0864 -4.5371 -2.9965 -0.0877 -4.3960 -7.0178 -4.5959 -9.3833 2.5348 -2.7769 -7.0133 -8.6579 -10.4330
4.9247 0.4182 11.9460 2.1417 0.7129 -0.0258 -4.2143 2.8162 0.4347 -2.1259 -0.7463 1.4661 0.3148 -1.2102 -3.3029 -5.0843 0.5050 2.9333 -7.0721 -6.2489 -4.9618 -8.3044 -8.6628 -8.2188 -12.5579 -1.8822 -6.3810 -13.0232 -14.0697 -14.4757
6.1766 1.9802 11.1595 11.5077 1.0020 -0.0404 -4.5122 4.6353 0.6366 -2.5357 -1.0453 1.0909 0.3891 -1.7184 -3.7879 -4.6539 -0.3887 3.4861 -8.7326 -10.7497 -7.1619 -10.8259 -9.3890 -10.3369 -13.7099 -3.9793 -8.3067 -10.9741 -12.2167 -11.1594
5.0363 1.6640 5.9789 10.2927 0.9863 -0.2363 -0.0031 5.5772 1.1015 -2.3910 -0.0859 1.8339 0.7552 -1.7038 -3.1307 -6.3870 -1.0436 3.0210 -8.8611 -11.4819 -7.5377 -10.7961 -9.3989 -10.7148 -14.7122 -4.3474 -9.7540 -7.0421 -9.0406 -9.1768
4.8934 0.0876 7.2437 5.3101 0.9371 -0.5523 2.7761 5.7084 1.9500 -2.2193 0.8342 1.4293 0.9380 -1.6502 -2.6647 -9.9652 -2.3093 1.9194 -8.6063 -10.5925 -8.6303 -10.0190 -9.6025 -10.9064 -15.5184 -5.2134 -11.6643 -9.0079 -10.5603 -11.6293
5.3831 -0.5731 9.5055 4.6212 1.0897 -1.2458 -1.7622 4.2482 1.8344 -2.2619 -0.1331 1.4574 0.0110 -1.9627 -3.2689 -9.2792 -4.2769 1.6760 -8.4269 -11.7818 -9.9721 -10.4416 -10.4541 -10.6592 -14.0394 -7.1254 -13.1553 -14.0710 -13.7364 -12.3914
4.5066 0.1471 5.7159 5.2284 1.2237 -0.8161 -6.3985 1.7836 0.6893 -2.1523 -1.1099 0.9086 -1.1091 -2.2442 -3.6520 -4.2819 -5.5725 2.2248 -7.5687 -10.3856 -10.6540 -11.7456 -10.3521 -9.1087 -10.5685 -8.7264 -13.8781 -14.7673 -13.2374 -9.6440
2.9051 0.8388 1.0871 2.4099 1.1366 0.9444 -5.0036 -0.1587 0.0743 -1.6921 -0.1910 0.0796 -1.7572 -2.1130 -2.9361 -1.7464 -5.4382 2.6478 -6.0413 -3.4268 -11.7362 -12.8023 -8.4454 -7.5233 -8.2457 -9.0994 -14.2998 -10.9653 -10.0644 -8.1863
2.0091 0.6908 1.1144 -1.4023 0.8732 1.6577 -1.7184 -1.2156 0.1027 -1.0338 0.8919 0.0035 -2.1185 -1.6154 -2.1032 -3.1964 -4.8194 2.6953 -4.5126 1.6577 -12.7334 -12.4848 -6.6973 -7.0770 -7.9430 -8.4251 -13.6294 -7.9473 -8.0089 -8.4796
1.0810 -0.0030 0.1327 -3.8351 0.5484 0.6112 -1.6723 -1.2696 -0.1566 -0.5154 0.2169 0.0202 -1.8579 -0.9542 -1.7760 -3.9464 -4.3189 2.5222 -3.1851 -0.7178 -10.7778 -10.1798 -6.0531 -6.4964 -7.1848 -6.9299 -11.2518 -7.6896 -7.4535 -6.7826
-0.4579 -0.8581 -6.0051 -6.0502 0.3737 -0.2680 -4.1070 -0.3698 -0.2472 -0.5135 -0.9642 1.0440 -1.0933 -0.5801 -1.3705 -2.8947 -3.4971 2.3102 -2.3458 -4.6736 -6.1487 -7.5945 -5.2154 -4.7835 -5.2151 -5.4635 -8.8749 -8.2362 -6.9683 -4.5900
-0.4500 -0.9476 -7.5098 -4.8098 0.4186 -0.1452 -5.1275 0.5520 0.4891 -0.7805 -0.5506 2.4882 -0.4056 -0.7005 -0.7804 -2.4431 -2.4727 2.5190 -1.9690 -2.7214 -2.8460 -6.6309 -4.1151 -3.0485 -3.5365 -4.9098 -7.5591 -7.0013 -5.6753 -5.0411
1.8442 0.1921 1.6883 2.7510 0.3575 -0.1595 -2.7687 1.1158 1.2630 -0.6679 0.8072 1.6210 0.5248 -0.6811 -0.4778 -2.1883 -1.5384 3.4885 -0.9221 2.9937 -1.5239 -5.6806 -3.1643 -1.6681 -1.6523 -3.8370 -5.5002 -2.7305 -2.4908 -4.4933
2.8476 0.6521 9.0031 8.9513 0.0076 -1.0001 1.0806 1.5426 1.3026 -0.3187 0.6902 0.9982 1.8665 -0.0850 -0.3631 -1.0956 0.1860 5.0755 1.2932 6.0846 1.4615 -2.4424 -1.0738 0.6966 1.6031 -0.5286 -1.6276 2.3846 2.0432 -0.0715
0.9664 -0.8396 5.4329 6.2792 -0.3558 -1.9426 2.6731 1.9677 1.0936 -0.2542 -1.0396 2.8385 3.1350 0.5624 -0.1065 -0.5318 3.2431 6.9705 3.7295 5.9258 6.9545 2.0723 2.4018 4.0705 4.5749 3.5744 2.5719 4.7238 4.8251 3.3230
-0.2649 -2.1650 0.6893 -0.7161 -0.5091 -2.2687 0.5569 3.0769 1.2605 -0.2973 -2.0160 2.9716 4.3335 0.7734 0.0762 -0.8269 6.3757 8.5223 5.5810 4.4010 12.1483 5.7943 5.4022 6.6443 5.7673 6.5767 6.2700 4.5483 5.0561 3.3672
0.3070 -1.8167 0.3941 -4.0584 -0.4538 -2.1519 -1.7105 4.1109 1.3552 -0.2235 -1.0574 3.0690 4.8461 0.6053 -0.1662 -0.2615 8.1809 9.0103 6.5021 1.5965 15.9639 8.0911 7.2141 7.6633 6.6695 8.9294 9.7719 5.3700 5.9772 4.5986
-0.4621 -1.2021 -2.0614 -2.5736 -0.2950 -1.5260 -0.8017 2.6575 0.6271 -0.2011 0.7272 8.6220 3.4749 0.3588 -0.4701 1.7031 8.3114 8.5685 6.3975 0.6289 18.4106 8.6884 8.4737 7.9973 8.3347 10.2780 11.7757 8.0469 8.6739 7.1974
-1.7804 -0.9825 -2.7733 -0.3014 -0.2924 -0.0731 0.2529 -0.1404 -0.4364 -0.0942 1.8048 12.0865 1.4647 0.4669 -0.1491 3.2850 6.9528 7.2852 5.8415 4.4775 17.9215 7.6565 8.7733 8.0073 9.3711 8.8359 10.8632 9.3069 9.6146 6.3298
-0.2006 -0.3564 5.3846 -0.2855 -0.4779 1.0635 -0.9877 -0.4010 -0.7091 0.2149 1.7189 5.3770 1.1908 0.8521 0.5884 2.8619 5.2545 4.7461 5.2290 8.0420 14.9470 6.1385 7.5592 7.3047 9.0894 5.9040 8.6553 7.0332 7.2168 3.1931
1.6840 0.4314 8.4337 -0.9709 -0.4493 0.6639 -0.3566 1.6090 -0.2869 0.3972 1.5467 -1.2112 1.9286 0.7534 1.1093 1.9926 4.8477 2.0333 4.2026 6.5285 12.8508 5.0096 5.9040 6.3237 8.8723 5.0252 7.4460 4.2928 5.2616 3.4370
0.6262 1.1591 -2.0708 0.4385 -0.0415 0.2303 3.7383 2.3952 -0.1257 0.5040 2.4391 2.3509 1.2292 -0.0723 1.5600 3.2183 5.2534 0.8044 2.7914 4.6520 11.9757 3.5797 4.7954 5.5982 9.2265 6.0024 6.5644 4.8403 6.4390 6.7148
0.2717 2.4464 -5.8433 2.6200 0.3478 1.4242 6.1320 1.0939 -0.3733 0.9742 3.7577 7.3099 -0.9323 -0.8636 2.1817 5.1284 4.2461 0.3614 1.7095 6.3793 9.2212 0.8349 3.5916 4.4173 8.6239 5.3170 4.2551 6.2600 7.4047 7.6317
2.5323 3.4571 4.6495 2.3136 0.3950 2.6678 4.3828 -0.6302 -0.5659 1.5929 4.1750 3.6500 -2.5473 -0.9705 2.6367 4.9482 1.2485 -0.5834 1.0063 7.8392 3.9103 -2.5675 1.6219 2.6743 6.6039 1.8548 0.8577 3.2939 4.2902 4.4226
3.4118 3.0212 8.2797 0.5347 0.3895 2.5121 2.3071 -1.6071 -0.6994 1.6274 3.8067 -3.5844 -2.9820 -0.8978 2.7795 4.0747 -2.2958 -1.6264 -0.2989 6.9892 -1.8929 -5.5546 -1.0256 1.5041 4.8811 -2.4721 -2.5220 -3.5447 -1.2409 0.1653
2.1621 2.2400 -0.5337 1.5952 0.7010 2.2393 3.3374 -1.5730 -0.8440 1.0124 3.6571 -5.2767 -3.3939 -1.4184 2.8127 4.8134 -4.7497 -2.1955 -2.0011 6.7649 -6.2906 -8.3021 -3.9054 0.8964 4.4039 -5.7128 -5.5067 -8.6841 -4.8895 -2.0738
1.2756 1.9525 -6.1191 5.0475 0.9451 1.8597 5.8179 -1.2256 -0.6633 0.5233 3.6479 -1.3548 -4.0088 -1.8598 2.6919 5.3703 -5.0175 -2.1718 -2.0972 7.7374 -7.4239 -9.8454 -5.6002 0.1795 4.4070 -6.3749 -6.8851 -9.0087 -5.0550 -1.8075
0.5264 1.2011 -4.5046 5.3137 0.6560 -0.0421 5.6871 -1.8659 -0.3033 0.4971 2.9131 1.6251 -3.9201 -1.2714 2.1008 3.3681 -3.9016 -1.7506 -0.9131 7.0960 -5.7100 -8.8475 -5.3716 -0.7211 3.5578 -4.7973 -5.9577 -7.2805 -4.1827 -1.3331
0.0680 0.3784 -1.8010 1.4657 0.3179 -1.4393 2.6279 -2.9164 -0.4597 0.4735 1.7940 0.0608 -3.3182 -0.5402 1.0380 0.3546 -3.7928 -1.9617 -1.5285 2.5987 -4.8630 -7.8238 -5.1606 -2.4469 0.6480 -4.0361 -4.9742 -8.3504 -5.8866 -3.2029
0.8824 0.7388 -0.7430 -2.2327 0.4449 0.4149 0.2703 -2.6947 -0.9686 0.3243 1.2306 -2.0361 -3.0223 -0.7038 0.1384 -0.5367 -4.9484 -3.0920 -3.6139 -3.9543 -5.5830 -9.0665 -6.3100 -4.8220 -3.1865 -4.9343 -5.4999 -12.1815 -9.7467 -6.1456
1.0888 1.2845 -3.2802 -3.2227 0.7077 3.1264 0.8527 -2.0772 -0.9062 0.1394 0.8813 -0.5260 -2.8747 -1.1655 -0.1233 0.6775 -5.5134 -4.0119 -3.9497 -6.7142 -5.2970 -9.8856 -7.2327 -5.9176 -5.0146 -4.8347 -6.1508 -14.0050 -11.7710 -7.2865
0.0616 0.7404 -6.3423 0.8834 0.7896 3.1565 3.6155 -2.3278 -0.1663 -0.3236 0.3759 1.1558 -2.4205 -1.3133 -0.0221 0.4929 -5.3176 -4.0076 -2.9246 -3.9930 -5.3357 -8.6208 -6.6139 -5.4994 -4.8193 -3.7465 -6.3820 -11.9504 -10.4695 -6.8181
0.0916 -0.1097 -3.9397 8.7099 0.6875 1.4408 5.6148 -1.8324 0.4963 -0.6803 0.1325 -0.5065 -1.5816 -1.1316 0.1580 -2.5444 -5.2272 -2.9623 -2.4948 -1.0872 -7.8503 -7.5024 -4.6910 -4.9519 -4.5252 -4.0267 -6.6217 -8.6451 -7.6736 -5.8549
0.9126 -0.5775 0.3678 9.1787 0.3003 -0.1098 2.8744 0.1246 0.6555 -0.2518 -0.4828 -2.7851 -0.3754 -0.3879 0.4782 -4.9036 -4.7442 -1.4483 -1.7095 -0.6345 -9.9927 -7.0095 -1.9869 -4.1526 -3.9557 -5.3026 -6.0522 -6.8831 -5.7003 -4.7951
0.8037 -1.0886 0.7253 -1.7619 -0.1856 -2.0330 -4.2945 1.3454 0.5270 0.4342 -2.1942 -3.8889 0.7018 0.5810 0.8534 -4.4280 -3.5556 -0.9612 -0.1558 -1.0979 -10.0241 -6.1737 -0.0165 -3.0289 -3.2095 -6.7044 -5.0891 -7.7180 -6.0993 -4.9378
0.3609 -1.6231 -0.9382 -10.4203 -0.3349 -4.2730 -9.1390 1.0078 0.4422 0.5885 -3.7469 -4.3660 0.8998 0.8884 0.8911 -3.8868 -2.4542 -1.2079 0.6122 -2.3472 -10.5088 -6.1131 -0.0666 -2.7209 -3.7178 -8.8060 -5.5728 -9.1275 -7.2764 -5.8607
-0.0684 -1.7834 -3.2336 -7.6992 -0.2100 -5.0112 -6.7477 0.5104 0.4418 0.5077 -3.8854 -2.2794 0.3700 0.6224 0.3110 -4.4315 -1.5791 -0.4344 0.7917 -1.9050 -11.6517 -6.9853 -0.4907 -2.9205 -4.3523 -10.3823 -6.7484 -7.7971 -6.1573 -5.6823
-1.3663 -1.7911 -7.4878 -0.5895 -0.1984 -3.9275 -1.2848 0.2687 0.4820 0.5892 -3.0411 1.8051 -0.1012 0.5770 -0.3714 -3.9732 -0.6834 0.4034 1.3330 2.4748 -11.1379 -6.7640 0.6056 -2.4086 -3.3697 -10.0608 -6.3116 -4.8645 -3.8764 -5.5851
-2.9046 -2.0706 -11.0045 3.6916 -0.3652 -2.7774 0.4466 -0.1431 0.7623 0.7135 -1.6021 2.7170 -0.2273 0.8975 -0.1685 -3.0620 -0.3887 -0.4011 1.5084 3.7063 -9.3735 -5.3715 1.8709 -1.4885 -2.4249 -9.4640 -4.4066 -4.2988 -3.4223 -6.5818
-3.3455 -2.3261 -10.7571 3.2022 -0.4941 -2.0370 -0.1258 -0.8186 1.1774 0.9976 1.1461 0.1722 -0.2364 1.1045 1.0928 -2.9827 -0.7199 -1.0843 1.2890 -1.8090 -7.4840 -4.1298 1.8812 -0.6461 -2.4997 -9.4100 -2.4677 -5.6472 -3.8691 -6.5191
-2.7757 -1.7418 -7.6404 -1.8505 -0.4548 -0.3975 2.3934 -2.0168 1.1292 1.4271 4.7016 -0.7454 -0.2203 0.9257 2.4092 -1.1300 -0.2662 0.2049 1.7674 -3.2570 -4.4254 -2.3076 1.9441 0.5638 -1.1220 -8.0413 -0.5552 -5.0896 -2.9490 -5.0300
-1.2981 -0.4047 -1.3744 -5.5680 -0.3751 1.5287 5.5582 -2.6312 0.7914 1.2616 5.5326 -0.2426 0.3145 0.6766 2.4284 3.0184 1.3902 1.9501 2.4746 2.5043 -0.2615 0.7857 2.7795 1.9898 2.3433 -5.2954 1.7170 -2.1653 -0.8746 -2.9047
0.9397 0.2487 6.7124 -3.4239 -0.4971 1.2329 4.3694 -0.4941 1.0053 0.4703 2.0393 -2.1403 1.7948 0.8666 1.1699 4.3313 2.9297 2.8355 2.8257 3.6238 2.9817 3.6672 3.4608 3.1994 5.2610 -2.9749 4.3630 0.6032 1.6331 1.0839
1.4164 -0.6309 6.9804 -1.1032 -0.7839 -1.1505 1.2721 2.7217 1.4554 0.2699 -1.3314 -3.3572 3.0927 1.4323 0.5172 1.1009 3.7975 3.5564 3.9587 0.3949 5.0683 5.4830 4.3623 4.4942 6.7096 -0.7728 7.4965 2.3018 4.0179 4.6344
-0.8554 -1.7406 -2.8934 -3.1552 -0.8557 -2.8412 -0.5859 2.8484 1.2367 0.8548 -1.2852 -0.2196 2.5973 1.6329 1.1528 -1.8701 4.2761 3.5457 5.5951 3.7547 6.8723 6.3300 5.5244 5.2846 7.5439 1.3969 9.7640 2.9964 4.5404 3.0185
-1.9278 -1.4052 -7.6818 -5.2278 -0.5796 -2.4215 -0.9388 0.3935 0.5985 1.1247 -0.0730 1.1946 1.0052 1.1201 1.4683 -2.0223 3.7752 1.7519 5.7529 8.3498 7.3464 5.4439 4.7971 4.3835 7.3243 0.9843 8.8432 2.7571 3.4493 -0.1920
-0.4743 -0.1497 -1.7198 -5.4402 -0.3544 -0.5683 2.6663 -1.2759 -0.0203 1.0798 1.3936 -2.6347 0.0530 0.6206 1.2154 -0.9259 2.2833 0.1382 4.8813 4.4040 5.9988 3.7238 2.4280 2.9579 6.1606 -1.6912 6.0879 3.5549 4.1851 1.9509
-0.0991 0.4991 1.9068 -6.4656 -0.3718 1.2126 7.6292 -2.0310 -0.7338 1.2903 3.6741 -4.4430 -0.4735 0.6294 1.5127 0.4532 1.0257 0.4260 4.4069 -0.4599 4.6808 3.5581 1.4633 2.7185 5.4788 -2.6911 5.2185 6.0150 6.7076 5.9593
-0.8999 0.3571 0.0048 -6.1683 -0.3245 1.4776 5.6074 -2.5547 -0.9550 1.1268 3.8204 -2.0960 -1.2610 0.6198 1.6107 1.1423 0.2220 0.6795 3.5918 0.3818 4.4290 4.0554 1.8348 2.6140 4.8959 -1.4348 5.9608 5.7603 5.9735 4.5145
-1.3394 -0.3033 -2.4924 -2.9336 -0.2146 0.4535 -0.3168 -2.2467 -0.2396 0.4300 1.2385 -1.0544 -1.7343 0.5124 0.9328 0.5879 -0.4050 -0.2623 2.7299 0.3687 4.9449 3.2134 1.5999 1.7784 3.6252 -0.1325 5.7038 0.7777 1.1977 0.1707
-3.4242 -1.0532 -10.3954 -2.5452 -0.2701 -0.0975 -0.0142 -2.3710 0.1150 0.3522 0.5426 -0.6681 -1.9268 0.6917 1.0508 1.4150 -0.5715 -0.8929 3.2843 -1.0410 5.3786 2.1459 1.5564 1.3794 3.3181 0.6561 4.4267 -2.7714 -1.5942 -0.4953
-5.4407 -0.4596 -18.5824 -7.7018 -0.2620 0.4994 3.1164 -3.4833 -0.7695 0.8919 2.4438 0.3781 -2.2370 0.6960 1.8884 4.6152 -0.9076 -0.8725 3.6682 2.3928 3.4607 1.6494 2.3756 1.4150 4.8145 0.3834 3.1021 -0.4636 0.4517 2.2002
-2.9484 1.1518 -11.3796 -12.5758 -0.1676 1.0623 1.0427 -2.8403 -1.3892 0.8547 3.1380 -1.6465 -1.6035 0.4661 1.3326 5.9564 -1.7311 -0.6228 2.3135 6.5990 -0.6510 1.0325 2.3586 1.1168 6.1319 -1.1202 2.0974 2.9494 3.2981 4.5520
0.6203 1.0948 3.0221 -12.1681 -0.3875 0.5416 -2.2171 -0.3374 -0.4381 0.2509 2.4108 -4.0164 0.1701 0.8509 -0.2310 3.5070 -1.7282 0.2141 1.1901 4.0342 -2.5755 1.1441 0.8711 0.8767 5.8530 -1.8269 1.8439 2.0718 3.2003 5.3568
0.5854 -0.5687 5.7258 -7.0898 -0.6085 -0.7459 -2.0418 0.9855 1.0572 -0.3037 1.6961 -1.4538 1.1498 1.3120 -0.9480 0.7694 -0.9102 0.5066 1.0172 -1.5893 -1.5607 1.8830 -0.8582 0.2052 4.1503 -1.3805 1.5295 -1.6937 0.4919 4.1824
0.0544 -1.1589 1.0450 -0.7122 -0.2068 -1.7601 -1.3030 1.2167 1.7117 -1.1066 -0.0263 1.7791 0.7022 0.5709 -1.5478 -1.1496 -0.7760 -1.1927 -0.2689 -3.1163 -1.7539 0.9301 -2.1188 -1.9776 1.1260 -1.8648 -0.1554 -3.6651 -2.1220 0.9029
0.8610 -0.6992 -1.7601 3.3802 0.4383 -1.7023 0.2444 1.6183 1.6194 -2.1735 -1.7137 1.3617 0.0606 -0.6991 -3.0657 -4.2070 -1.3222 -3.6478 -2.8188 -2.2382 -3.3919 -1.5125 -3.2010 -4.6995 -2.3234 -3.4073 -2.3516 -2.3923 -2.4539 -2.2685
0.4981 -0.6720 -5.2891 4.0853 0.7048 -0.8859 3.5585 1.3673 1.5490 -2.8045 -0.8454 0.2046 -0.4288 -1.2339 -4.0137 -6.4420 -1.9067 -5.5198 -4.9165 -4.7033 -3.8612 -3.0728 -4.6015 -6.4590 -4.2946 -4.7961 -3.3876 -1.5594 -1.9607 -3.0245
-0.1227 -0.6540 -8.0891 3.7342 0.8004 -0.4301 3.2099 0.8488 1.7762 -2.9781 0.7927 0.2627 -1.2150 -1.3927 -3.4267 -4.9151 -2.6546 -7.3726 -6.0309 -10.0878 -4.3819 -3.6349 -6.3383 -7.2340 -4.6452 -6.0643 -3.5510 -4.5668 -3.8066 -2.5939
0.3257 -0.4745 -6.4402 3.7836 0.9224 -0.2047 -1.2054 0.5440 1.9070 -2.9153 0.9612 0.9670 -2.1265 -1.6166 -2.3427 -2.5025 -3.0914 -8.7399 -6.0564 -12.3902 -5.9205 -4.0915 -7.2894 -7.0819 -4.6278 -6.6846 -4.0518 -8.5787 -6.7927 -3.2755
-0.0680 -0.7467 -3.0761 1.5990 0.7123 0.7164 -1.7908 -1.0728 1.4760 -2.1944 1.2739 1.2235 -2.4745 -1.2717 -1.0542 -2.7146 -2.4601 -8.1714 -4.4829 -8.9195 -5.8363 -3.8524 -5.9338 -5.5280 -3.6306 -5.2078 -4.3145 -7.9028 -6.0880 -3.1159
-1.2727 -0.6666 -1.3832 -4.1712 0.1763 1.3998 2.3553 -3.0414 0.3917 -0.7597 2.4233 -0.9209 -2.0045 -0.3094 0.9311 -2.8799 -1.3686 -6.6676 -1.8016 -3.6987 -4.0021 -2.6279 -2.8575 -2.9446 -0.8001 -2.6495 -2.8574 -2.6257 -1.2702 0.5946
-2.0458 0.2591 -4.2736 -8.5594 -0.1693 0.6061 3.9584 -3.2491 -1.2411 0.8251 3.1395 -3.8337 -1.7794 0.3688 2.8851 -0.1941 -0.9498 -6.2164 0.5553 -0.3740 -3.5629 -1.5252 -0.8980 -0.6018 2.0156 -2.2423 -0.5339 1.3576 2.3910 4.1341
-2.7133 0.6926 -8.9379 -7.3979 -0.2169 -0.5980 0.7545 -3.5542 -2.6714 2.1362 3.5005 -4.2060 -2.6777 0.4787 3.8784 1.9116 -1.1616 -6.1744 1.7568 1.7491 -4.6272 -1.2976 -1.1633 0.8957 3.3571 -4.1570 0.4883 0.6831 2.0408 3.1824
-2.3380 0.2799 -5.8754 -4.6319 -0.2642 -0.8233 -2.4760 -4.5766 -2.5687 2.6839 3.5292 -4.2019 -3.2659 0.4603 4.2855 1.1408 -1.1573 -5.3420 2.2550 2.1739 -4.6463 -1.4044 -1.7571 2.0505 4.4809 -4.5912 0.4423 -1.9003 0.6550 2.0758
-0.4479 0.5676 1.9569 -4.6951 -0.3382 -0.1314 -1.7359 -3.2022 -1.1186 2.2112 2.6863 -5.6027 -2.1954 0.4545 4.5497 1.9162 -0.5766 -4.6284 2.9796 -0.5862 -3.2631 -0.8582 -1.5597 3.1742 6.1481 -2.0506 1.3098 -1.1039 2.2973 6.7900
0.4644 1.8655 2.2486 -4.6926 -0.3091 0.8298 1.1992 -0.4541 0.0138 1.4859 1.8700 -4.1606 -0.9034 0.3488 4.3429 5.2846 0.4458 -4.3031 3.6285 -2.9227 -1.7441 0.6929 -1.2178 3.8203 7.3946 0.5105 3.7461 4.9898 7.4502 13.7696
-0.5869 2.3035 -3.1019 -2.3316 -0.3189 1.2496 2.4410 -0.1400 0.5653 1.3534 2.2909 0.6166 -0.5228 0.3666 3.8764 4.9961 1.8758 -2.9621 3.2260 -1.2559 -0.1438 2.6993 -0.5933 3.8214 7.6698 1.3307 6.6998 10.8334 11.7543 15.1163
-1.9318 1.0873 -6.3302 -2.2843 -0.5523 0.7784 3.0667 -0.7565 1.2317 1.6002 3.9389 2.2827 0.4230 0.8386 3.8739 1.5420 3.5510 -0.9418 2.5957 0.7722 2.2055 4.6171 0.8490 3.7769 7.4221 1.7940 8.7275 9.2781 10.2557 10.5864
-2.5451 0.1062 -8.6106 -6.2766 -0.8210 0.1194 5.0678 0.7352 1.4666 1.6362 5.4907 -0.3864 2.6390 1.4471 3.8386 2.9461 5.0948 0.1522 3.0548 -0.2233 4.9818 6.5546 2.6493 4.1171 7.5865 2.6995 9.3897 3.1987 5.2368 7.1335
-1.8433 0.7519 -8.3427 -7.4172 -0.8411 -0.1817 4.7574 2.9085 1.0672 1.3018 5.0168 -0.9400 4.5574 1.5305 2.7280 7.3626 6.5639 0.8894 3.8691 -1.2053 7.2918 8.5229 4.4638 4.5670 8.5769 3.9707 10.0308 2.9518 4.7926 8.9005
-0.0651 1.4632 -1.2465 -2.6249 -0.7691 -0.6215 1.0328 3.6563 1.1222 0.7272 2.7786 2.8929 5.2243 1.3148 1.1292 6.0955 8.0875 2.3630 4.3428 0.0746 9.3229 10.1276 6.0501 4.8512 9.1025 5.8149 11.8411 10.1499 10.2515 12.2549
0.5619 0.4899 5.7922 1.4951 -0.8862 -1.5920 -0.3960 3.2306 1.4567 0.2355 1.2799 6.1087 5.0438 1.5183 0.4080 1.2069 8.9342 3.3451 5.0930 1.9168 11.1625 11.2608 6.3440 4.9653 7.8460 6.6048 13.3601 14.7570 13.2448 10.9909
-0.5872 -1.0958 4.6229 1.9615 -0.9474 -2.2574 0.8632 2.3211 0.8002 0.1514 1.0419 5.7498 4.2242 1.7555 0.4817 -0.2430 8.3573 2.5534 5.5560 3.2344 10.7866 11.6544 5.2481 4.5696 5.7972 4.2709 12.4293 11.0476 9.2653 4.9751
-1.0654 -1.4229 0.2256 2.2983 -0.6052 -1.5410 -0.4651 1.5945 -0.4568 0.2956 1.0473 4.3379 2.9228 1.1893 0.5895 0.1667 6.7607 0.8456 4.7255 3.8562 7.7036 10.5921 4.5668 3.6620 4.9079 0.8628 9.7536 5.6129 4.6537 0.6665
-0.1863 -0.7774 0.5270 0.4404 -0.2481 0.0319 -2.3696 1.4560 -0.9732 0.3229 2.2507 3.6838 1.9974 0.4706 1.0477 -0.6051 5.3246 -0.0672 4.1131 4.0974 6.1235 8.9788 5.4499 3.8445 5.9335 0.2766 8.2090 6.4968 6.2162 2.2923
-0.0206 -0.3786 3.9152 -4.7189 -0.4855 0.8277 -0.2228 1.5016 -0.5568 0.3409 4.5891 2.1863 2.3355 0.8609 2.0461 0.4473 5.2235 0.8057 5.5817 5.0564 8.4884 9.1292 7.0057 6.2926 8.2298 2.3967 9.3867 12.1425 11.6560 7.0329
-0.8814 -0.3338 4.4261 -4.1296 -0.9908 0.4010 2.1586 1.8544 0.3029 0.4000 4.9760 -0.2386 3.2449 1.8101 2.4230 3.7867 6.2271 2.2846 7.5350 5.6370 10.6932 10.3239 7.6455 8.8120 9.9483 3.8213 11.5243 14.7080 14.0057 9.6980
-1.4307 -0.5768 0.8821 2.1564 -0.9835 -0.4863 0.7399 2.3551 0.9590 0.2860 2.9363 0.0897 2.5810 1.8087 1.8608 4.5260 6.3507 1.8170 7.3442 3.7745 9.7669 9.2575 6.7334 8.6304 9.4632 3.1775 11.5672 11.2139 11.2789 8.3911
-2.1784 -1.3480 -3.7759 1.1311 -0.6479 -1.6490 -1.1607 1.3460 0.6337 0.3054 1.3403 3.4477 0.2120 1.1855 1.8339 2.1205 4.9042 -0.7102 5.8522 0.2971 8.5139 6.3288 5.5627 6.8147 7.6668 2.2676 9.6432 6.8582 7.9960 6.2362
-3.6709 -1.6394 -7.2660 -4.9175 -0.6622 -2.5991 -0.3186 -0.9120 -0.4115 0.9557 1.3985 3.5345 -1.2542 1.2327 2.8594 1.2069 3.4456 -3.4809 5.3056 -2.8173 8.1021 4.8070 5.6775 5.6879 6.6237 1.7851 8.2206 6.6534 8.0140 7.2094
-4.0357 -0.1368 -8.3405 -2.3063 -0.7773 -1.5186 1.6936 -1.7807 -1.0820 1.8913 3.2460 -0.5796 -1.3442 1.4528 3.9755 2.7210 2.7794 -6.0711 5.1402 -3.3600 6.4753 4.5414 5.9939 4.8960 6.3903 0.4114 7.6918 9.1485 9.7570 9.0497
-2.9012 1.9252 -7.7263 4.1333 -0.5734 1.0696 1.2512 -1.0437 -1.0872 2.4278 6.4375 -1.2854 -1.7947 1.0222 4.8816 3.8698 3.0668 -7.4577 4.1934 0.5459 5.0360 4.0232 4.7751 4.0511 6.1761 -0.8145 7.7224 10.6932 10.1579 7.0616
-2.6421 2.1682 -8.0007 1.2960 -0.5959 1.4627 -1.8984 -0.3203 -0.7152 2.4654 7.8118 0.7977 -1.3304 1.0138 5.4410 4.0569 5.0211 -5.5049 3.8184 4.9619 5.9795 4.6486 3.2775 4.3478 6.4670 0.2020 9.0189 10.1342 9.1057 4.1619
-2.8597 0.9700 -7.1988 -6.1252 -1.0197 -0.7135 -2.6827 0.5253 -0.2018 2.1371 5.8692 -1.7276 1.5113 1.8056 4.8111 3.5318 7.4665 -1.9318 4.6281 3.6529 7.0486 6.5037 3.2454 4.8962 7.1267 1.7374 10.0807 8.0856 7.8720 5.4961
-1.5792 0.4542 -3.0679 -6.5037 -1.0158 -1.8501 0.5280 1.2915 -0.0719 1.5422 3.8032 -3.8385 3.3262 1.8122 3.2316 1.5375 7.9503 -0.7482 4.4432 -1.0081 6.8512 6.6553 3.5306 3.6249 6.8905 1.6395 8.8077 6.6591 7.4628 8.4510
-0.8592 0.8087 -1.9797 -1.6323 -0.5702 -1.2585 3.6443 0.5215 -0.4361 1.1077 3.8171 0.8540 1.9811 0.9865 2.1421 -0.3336 6.7260 -1.7725 2.5530 -3.0845 6.9377 4.8901 2.6460 1.6215 5.6315 1.0236 6.9739 7.6842 8.3294 8.9040
-2.1656 0.9699 -6.2548 -0.2260 -0.4960 -0.7113 5.8927 -0.8599 -0.6614 1.0776 4.6529 2.3879 1.0081 0.8739 1.9550 -0.2318 5.7698 -2.5624 0.8791 -3.1581 6.3614 3.5971 1.2362 0.5496 3.6198 0.3276 6.3871 8.5020 8.2532 7.0079
-2.4114 1.0050 -7.2848 -3.5177 -0.6477 0.0659 6.8245 -0.7503 -0.6686 1.0062 4.8830 -4.6157 2.0879 1.1994 1.9480 -0.4510 5.5463 -3.0720 -0.0558 -2.1946 3.6903 2.7706 0.3853 -0.6127 0.9568 -1.1353 5.4338 5.7620 4.8203 2.7683
-0.8403 1.3881 -4.1848 -7.4140 -0.4774 1.2757 3.1319 0.1131 -0.8601 0.7632 4.3827 -8.6400 2.4123 0.9142 1.7190 -2.5588 5.3210 -3.5642 -1.0384 1.5153 1.0998 1.5568 0.1482 -2.2881 -0.7018 -2.0390 3.7908 2.5916 1.1386 -2.0744
-0.5300 1.9037 -5.2919 -9.4454 -0.2845 1.6918 -1.2941 0.0076 -1.0025 0.8684 4.1498 -5.8877 1.3495 0.5652 1.3623 -3.7251 4.4709 -3.1904 -1.5503 4.2483 0.1146 0.9884 -0.0010 -3.1796 -0.3995 -1.8859 3.3860 3.5823 1.6904 -2.5304
-1.6666 2.1231 -8.9677 -6.7267 -0.3684 1.5382 -0.0016 -0.7979 -0.8134 1.1359 4.5079 -5.3237 0.8408 0.7190 1.0792 -2.5431 3.1974 -2.3675 -1.2607 1.4353 -0.5817 1.3966 -0.3007 -2.9659 0.2577 -2.5973 3.6837 6.2978 4.5054 1.2660
-1.8143 1.6749 -7.3580 0.7210 -0.4221 1.7630 3.2757 -1.0878 -0.6301 0.7685 3.9309 -8.2593 0.8789 0.8187 1.0832 -1.4796 2.5543 -2.3072 -1.0554 -2.8828 -1.3920 1.6733 -0.5430 -1.8912 0.9776 -4.0208 2.9931 5.6467 5.0935 4.1407
-1.1964 0.6060 -4.1718 4.1961 -0.2980 1.8030 2.8760 -0.5067 -0.6983 -0.0454 2.2216 -8.4860 0.5007 0.5928 1.2627 -1.6439 2.6685 -3.0247 -0.9947 -3.7761 -1.2897 1.6538 -0.8699 -0.1720 2.8891 -4.0667 2.5418 2.4881 3.8617 4.8296
-1.7839 -0.2095 -7.3785 0.1352 -0.2019 1.1770 0.2013 -0.2598 -0.9069 -0.4675 1.1535 -5.2205 -0.0156 0.4253 1.2054 -1.3290 2.3599 -3.6394 -0.4461 -2.9798 -0.1329 1.5521 -1.5317 0.9476 4.5158 -3.3436 3.6789 1.6878 3.8325 5.0773
-2.9376 -0.0955 -11.8919 -1.2988 -0.2207 0.8033 -1.5596 -1.2246 -1.1176 -0.3023 1.3898 -2.7204 -0.2006 0.4606 1.1484 -0.5618 1.4897 -3.3700 0.3531 -2.3568 1.1187 0.8851 -1.7844 0.9259 4.3182 -3.6764 4.7380 4.3184 5.5136 4.9909
-2.4521 0.6503 -9.3504 3.7316 -0.2756 1.3102 -0.0579 -1.6536 -1.0942 0.3080 2.9878 -3.2729 -0.0982 0.5107 1.8286 -0.5188 1.0204 -2.3967 1.0070 -0.7660 1.6138 -0.0219 -0.7449 1.2332 4.3671 -4.1009 4.6684 6.8185 7.3409 5.0479
-0.7820 1.5147 -4.1035 5.7875 -0.3553 1.6852 3.7692 -0.2159 -0.6745 1.0842 5.1344 -5.2033 0.1585 0.5808 2.7586 0.9751 1.1037 -1.4510 1.6560 1.0706 1.6642 0.0651 0.9451 2.6933 6.3337 -3.0713 5.2115 6.7981 8.0109 6.4864
-0.0395 1.9953 -2.1967 2.2400 -0.5699 0.3983 3.5238 1.3768 -0.1915 1.3024 4.6828 -6.4497 0.7630 0.9742 2.8004 5.0055 1.8429 -0.1526 2.4115 0.9170 2.2555 1.6180 1.8648 4.3643 8.5294 -1.5189 7.0112 5.9809 7.8866 9.0827
-0.5833 1.5456 -1.0817 -0.1583 -0.9732 -2.0716 -1.3903 1.8727 -0.1710 0.9549 1.6375 -6.1577 1.9704 1.8109 2.5841 7.3836 3.9061 1.8745 3.6558 0.3508 3.6573 4.1439 2.1762 5.8414 9.8633 -0.3440 8.4477 7.2595 9.0205 11.9654
-1.7670 0.6300 -0.0452 0.2945 -1.3529 -2.9104 -0.9612 1.6416 -0.6317 1.1412 1.6109 -3.1016 2.8503 2.5887 3.3847 6.7032 6.4306 3.2140 5.6943 3.4050 5.6352 6.5188 3.3751 7.5128 11.3620 1.3636 9.2195 10.5747 11.8988 13.8018
-2.9981 0.6982 -2.1397 1.6414 -1.3705 -0.8843 6.9555 0.5133 -1.0444 1.9625 6.2076 0.8497 2.0999 2.5842 4.5360 7.0794 7.3863 3.3024 7.1763 9.1442 7.5762 7.3735 5.0824 8.6436 12.7745 3.3585 10.2939 13.2720 13.9884 13.1557
-3.3649 1.7998 -6.3525 3.4104 -1.0128 1.2106 10.4426 -0.8809 -0.9487 2.1685 9.2016 0.5183 0.6466 1.8136 4.7324 9.0942 6.7699 3.7623 6.6810 11.7983 7.8601 6.7347 5.1834 8.3966 12.9745 3.8472 11.0700 13.2022 13.4407 11.4508
-2.7734 1.9586 -8.8307 3.2480 -0.6396 0.7299 5.9161 -1.2066 -0.4970 1.4852 7.1148 -3.2263 0.2361 1.0386 4.0719 8.8636 6.0828 4.5268 5.4069 9.1104 5.9442 6.0179 3.7817 7.8523 12.6555 2.8043 10.6820 10.2195 11.3240 11.2882
-1.8961 0.6697 -6.2469 0.8509 -0.4581 -0.9400 3.2663 -1.3557 -0.4130 0.8297 3.9245 -4.0481 -0.0466 0.6653 3.3016 6.1786 5.0543 3.5791 4.8751 5.8198 3.9300 5.4473 2.9088 8.0613 12.5720 1.3367 9.8787 7.5459 10.1584 11.6591
-1.1827 0.1674 -1.0464 -0.0420 -0.3542 -1.6039 3.9129 -2.3134 -1.1220 0.6045 2.7653 -1.9333 -1.6990 0.4961 2.8987 4.9973 2.6797 1.4036 4.4915 7.7365 2.8859 4.0339 2.8047 8.0065 11.9087 -0.7510 8.8973 9.0572 11.0728 9.9881
-0.9564 1.2959 -0.5355 -0.6112 -0.3048 -1.5947 1.5492 -2.4794 -2.0287 0.7245 2.4567 -3.5216 -2.9644 0.4965 3.0218 6.1694 0.5395 0.3627 3.8075 13.1490 0.9462 2.0749 2.4000 6.6960 10.0090 -3.3881 6.7044 11.8932 11.4556 6.6658
-0.5913 1.9704 -1.8612 -4.2367 -0.3938 -1.6030 0.2480 -1.2476 -2.3679 1.1637 2.3543 -10.3750 -1.9302 0.7177 3.3472 5.8682 0.7580 0.7263 3.4524 14.2221 -1.8245 0.7472 1.7242 4.8814 7.3268 -5.1281 3.6611 9.3611 8.1196 3.5577
-0.2012 0.8710 -0.3541 -7.7426 -0.4470 -1.2968 4.1689 -0.8850 -2.2965 1.4778 2.7100 -13.5050 -0.9665 0.8046 3.3282 2.5600 1.9367 1.3004 3.4078 9.0438 -2.1802 0.0716 1.0806 3.5300 5.1994 -5.2963 1.5924 2.7267 3.2062 1.5687
-2.2999 -0.8085 -7.2967 -7.9918 -0.2394 -0.7674 4.8043 -2.5012 -2.2378 1.1405 2.3281 -5.9420 -2.7232 0.4898 2.5946 -0.3167 1.5179 1.3801 3.0932 3.3330 -0.4899 -0.6258 -0.0612 2.4390 4.4599 -5.0934 0.8669 -0.4577 1.6090 1.4531
-5.6100 -1.3217 -21.5718 -5.8922 0.0312 -0.3678 -0.7057 -4.0037 -2.0241 0.4385 0.8105 2.1164 -4.7889 0.1122 1.1962 -0.8034 0.2952 0.3044 2.0757 0.1107 -1.2875 -1.3909 -1.7089 1.1169 3.9637 -5.9552 0.3472 1.0148 3.1302 2.9388
-4.6097 -0.3713 -18.8220 -1.8033 -0.0278 -0.2856 -3.0157 -3.4887 -1.5101 0.0647 -0.6078 -2.7136 -3.9020 0.1809 0.0429 -1.0051 0.3807 -1.6818 0.4792 -1.0139 -4.5785 -1.5417 -2.6863 0.1157 3.2099 -7.4064 -0.0921 2.2556 3.9444 4.1578
-0.5104 0.6408 -1.0740 0.6518 -0.3669 -0.7304 -0.4512 -2.2325 -1.0784 0.2826 -1.6350 -13.5177 -1.6511 0.6481 0.1349 -1.8866 1.1116 -2.5457 -0.6156 0.1859 -5.9128 -0.4605 -2.7534 0.0688 3.7580 -7.8874 0.0797 1.4571 3.1987 4.5597
0.7216 0.7171 4.2766 -2.5954 -0.5084 -1.0511 0.7853 -2.0977 -1.0429 0.7606 -2.2494 -16.1211 -0.7904 0.8366 0.8248 -2.0389 0.9368 -1.5393 -0.8905 2.0441 -5.1768 1.0811 -3.4661 -0.0269 4.9893 -7.6515 0.2051 -0.2307 1.8304 4.4045
0.1893 0.7727 -0.8480 -5.7553 -0.2645 -0.5061 0.6108 -2.1534 -1.2629 0.7737 -1.6786 -11.5825 -0.7021 0.3916 0.5546 -1.4297 0.8325 -0.9224 -1.5231 2.6354 -5.1082 1.4286 -4.9761 -1.1696 4.5360 -7.5892 0.0412 -1.3368 0.5422 3.2028
1.2067 1.5130 0.0638 -3.2110 0.0732 0.4748 1.2794 -1.2030 -1.3428 -0.0184 -0.5600 -6.5942 -0.4987 -0.2250 -0.6341 -1.3200 1.9844 -2.1227 -2.6880 2.2751 -4.5913 0.6578 -5.0631 -2.3320 3.5164 -6.6948 0.8985 0.4915 1.6012 2.9504
1.4999 2.1718 -1.3658 0.2022 0.3656 1.6974 2.6358 -0.3659 -0.9483 -0.8916 -0.1909 -2.5787 -1.0104 -0.7575 -1.3767 -1.4459 2.8289 -3.3633 -3.4867 0.8062 -2.6384 0.4223 -3.5248 -2.6442 4.0278 -5.0045 2.6198 3.9772 4.7192 5.4011
0.5991 2.4801 -9.4083 0.7204 0.6628 2.8259 4.1359 -0.2547 -0.3186 -1.0025 -0.4078 -2.8208 -1.5406 -1.3425 -1.2435 -0.4181 2.1923 -2.7171 -3.8746 -0.7553 -2.2302 1.1171 -2.9143 -2.7647 4.7644 -4.6172 3.2310 3.2838 4.4983 6.6015
1.6033 2.6000 -8.4059 -0.0843 0.7603 2.1279 2.8101 -0.0243 -0.0289 -0.7892 -1.2883 -8.0605 -0.4814 -1.6036 -0.9877 1.1006 1.6916 -0.7787 -3.8213 -0.9575 -3.9497 1.7511 -3.8005 -2.7409 4.6487 -5.0347 2.6008 -1.5865 0.3705 5.0351
2.7222 1.7815 -1.1903 -1.5019 0.6065 -0.0627 -1.2050 -0.1517 0.0355 -1.1468 -2.6333 -9.1707 0.7249 -1.3351 -1.1541 0.3433 1.7471 0.3473 -3.0611 -2.8291 -4.5575 1.7394 -4.5334 -2.2468 4.5611 -4.6313 2.0926 -2.8943 -0.3215 5.9686
0.9072 0.3288 -3.8217 -2.1356 0.5022 -0.5367 -1.5093 -1.3503 0.2196 -1.6009 -2.2704 -4.0606 -0.0203 -1.0636 -1.4217 -2.5825 0.4035 -0.5016 -2.4547 -7.1682 -4.3025 0.9760 -4.6989 -2.1609 3.8535 -5.4551 1.6689 0.9501 3.6325 8.6715
-0.8283 0.0210 -9.3627 -1.5844 0.4100 0.7954 1.1480 -2.3017 0.1021 -1.1488 -0.6306 -4.8330 -1.1053 -0.8085 -1.3127 -4.0975 -1.8056 -2.1963 -2.6581 -7.9415 -5.9765 -0.1805 -4.7081 -2.7462 1.9637 -8.2940 1.0678 2.2690 4.3426 6.4787
-0.5888 0.3872 -7.8505 -2.4536 0.1127 0.7832 -0.0512 -2.6058 -0.4165 -0.1978 -1.2405 -12.6685 -0.5948 -0.2309 -0.8950 -3.8003 -2.1462 -2.6193 -2.6509 -3.8534 -7.7167 -0.3684 -4.6296 -2.6743 1.1119 -8.9066 1.1495 -1.7704 -0.0177 1.3731
-1.1773 -0.4346 -7.6239 -3.2907 -0.1258 -0.1618 -1.8961 -3.3596 -0.6060 0.3979 -2.9645 -14.4026 0.1235 0.1747 -0.1536 -4.5970 -1.1189 -1.3617 -1.6036 -0.2670 -6.5169 0.9026 -4.9156 -1.4672 2.2843 -6.4023 1.5490 -5.1029 -2.7563 -0.3687
-1.6779 -0.9789 -9.1244 -0.7745 -0.0488 0.9047 1.4025 -3.1490 -0.4512 0.8664 -1.6058 -10.2586 0.0119 -0.0459 1.0975 -5.5471 -1.0715 -0.3454 -0.2764 2.2887 -5.0681 1.5715 -5.7020 -0.2977 3.5931 -5.7845 0.5624 -3.7857 -1.1805 0.4130
0.6201 0.8399 -4.0029 2.0310 0.0737 3.0170 4.6719 -0.8052 -0.4767 1.4990 1.4181 -10.5315 0.1684 -0.3523 2.1128 -3.5784 -1.1266 -1.1640 0.4383 5.6493 -6.4795 0.4254 -6.2014 0.1057 4.6276 -7.7798 -1.1504 -0.6608 1.4351 1.9077
2.4720 2.7283 1.0288 1.6122 -0.0460 3.2190 3.1919 0.6182 -0.6010 2.0026 2.1285 -12.6376 0.6695 -0.1780 2.1806 -0.7344 0.5727 -2.3693 0.7667 6.8955 -8.0595 0.1906 -5.7740 0.5206 6.3928 -7.4970 -0.6002 1.0127 3.1742 5.2601
0.6544 2.0304 -2.5916 -0.5905 -0.3327 1.8590 1.4160 -0.5638 -0.9151 2.4959 1.1054 -9.8725 0.6018 0.3598 2.3649 -0.5411 2.7060 -1.4387 1.4025 5.3241 -6.5775 3.2055 -4.4923 1.8053 8.2170 -4.0237 2.7127 1.3746 4.2829 8.4067
-2.2117 0.3126 -8.7769 -2.9700 -0.5678 0.7339 1.8196 -2.1148 -1.5859 3.0624 0.5254 -4.8909 -0.1368 0.8679 3.4898 -0.9629 3.2356 0.6899 2.3717 5.0304 -3.7385 6.6265 -3.2759 3.2544 9.2700 -1.2554 5.4881 1.1489 4.3912 8.7168
-3.4129 -0.0961 -11.0184 -3.1846 -0.5801 0.1454 1.4070 -2.9765 -1.8230 2.8520 0.3052 -2.1126 -1.2150 0.9933 4.0064 0.7695 2.5249 0.7733 2.6733 6.5859 -3.1279 6.6024 -3.1768 3.2869 9.2598 -1.2956 5.1659 0.8704 3.6703 7.5844
-3.1083 0.7169 -10.0799 0.7174 -0.3964 0.3593 0.9202 -3.2888 -1.3275 1.8297 0.4426 -3.5398 -1.7211 0.6981 3.0258 2.6666 1.7138 -1.1952 1.6490 7.0235 -5.4740 4.4961 -3.6230 1.9594 7.3288 -3.2100 3.1611 2.1343 3.6774 6.4499
-1.8797 1.8169 -6.9790 3.9723 -0.3080 1.5480 3.9678 -2.6113 -1.0371 1.6376 1.6275 -8.6299 -0.8859 0.4825 2.4152 3.5541 1.1134 -2.3373 0.5630 6.3285 -7.8120 3.9909 -3.2574 1.2149 4.8818 -5.0830 2.3800 4.1064 4.2874 5.3216
-0.7407 2.3467 -3.3061 2.0007 -0.4713 2.1202 8.2390 -1.8615 -1.0629 2.6201 2.8728 -11.5667 0.1685 0.7197 2.9744 4.8861 1.1964 -1.7945 0.7482 6.2137 -6.8959 5.0595 -2.3384 1.7520 4.8284 -5.1310 3.4350 2.6413 2.9097 4.1060
-1.1506 1.4847 -3.5375 -1.9039 -0.6724 0.6587 7.7563 -2.0021 -0.7672 2.9813 2.5930 -8.4246 0.3623 1.1262 3.1329 5.0624 2.5000 -0.7524 1.4016 5.7955 -3.6921 5.7288 -1.5484 2.2662 5.9750 -3.1817 5.1348 -1.5955 -0.1039 2.5452
-3.2119 -0.1275 -9.8872 -2.9897 -0.7692 -1.6992 2.2099 -2.0137 -0.3380 2.1205 1.1067 -3.5486 0.5404 1.4392 2.7200 2.7553 3.8876 -0.1165 1.6154 3.9813 -1.9792 5.9204 -0.4386 2.1987 5.5223 -1.4812 6.6028 -1.7443 -0.0803 2.0170
-4.7862 -0.6095 -16.0709 0.9079 -0.8222 -3.0186 -2.9426 -1.2276 0.2190 1.1473 -0.7754 -2.4785 1.1094 1.6471 2.4984 1.3911 3.4648 -0.9705 1.6539 2.0566 -2.6570 5.4385 0.3057 1.7543 4.2708 -2.7811 6.7596 2.9721 3.3941 3.4628
-3.7399 0.0976 -13.4803 6.9395 -0.8093 -3.2691 -3.9264 -0.4960 1.2099 0.5398 -3.0472 -6.0070 1.4152 1.6026 1.7028 1.9580 1.7456 -3.0311 1.4646 0.1462 -3.6230 3.5485 -0.5845 0.7646 3.3660 -6.2924 5.1983 4.6822 4.4077 4.1165
-1.8813 -0.0089 -6.3904 5.9658 -0.8294 -3.7364 -1.9739 -0.5430 1.7956 0.4571 -4.4781 -11.0627 1.7708 1.5511 0.6711 1.2794 1.1559 -3.1029 1.3810 -1.6301 -3.7942 2.5379 -1.0699 0.2099 2.3436 -7.4423 4.1969 0.8603 1.1822 2.1519
-2.2226 -1.1694 -5.0885 -2.5196 -1.0652 -4.7318 -0.8698 -1.0293 1.5190 1.2228 -3.5822 -13.4251 2.4861 1.9710 1.0005 -0.4789 2.0398 -0.4354 2.1614 0.0592 -3.5561 4.4962 0.8921 0.7535 1.5687 -5.1775 4.8516 -2.3883 -1.8553 -0.9185
-3.0767 -1.4621 -6.3985 -5.8462 -1.2536 -5.4782 -2.2033 -1.1571 1.3419 1.9755 -1.9831 -12.6938 2.4141 2.3786 1.4873 -1.2335 2.1397 0.8683 2.4858 3.3873 -3.7355 5.9902 2.2181 0.1762 0.5885 -4.6419 4.3314 -2.5141 -3.0116 -3.8541
-2.4501 -0.9915 -4.5822 -0.6011 -1.0697 -5.7243 -2.8854 -1.3350 1.1329 1.6947 -2.0989 -11.3721 0.9551 2.0906 0.3391 -2.0759 0.6473 -0.7729 0.8786 1.4208 -5.1462 4.0024 0.3764 -2.1866 -1.6541 -7.3823 2.1519 -2.7823 -3.8861 -5.5965
-2.5931 -1.6185 -4.7569 3.8245 -0.7578 -5.9122 -1.0260 -2.6542 -0.0375 0.9588 -3.6358 -8.9982 -0.6647 1.5365 -1.0152 -3.8252 -0.3201 -2.2840 -0.8153 -2.6139 -6.7623 1.8808 -1.5113 -3.0051 -3.2099 -7.6370 2.1240 -3.8813 -4.3073 -5.4330
-3.6691 -2.6302 -7.1792 5.1124 -0.5792 -6.0074 -0.7417 -3.9649 -1.2041 0.3998 -5.4196 -5.6486 -1.3156 1.2153 -1.5731 -4.2824 0.5432 -2.6949 -0.6725 -1.6656 -6.4026 2.5533 -1.2924 -1.5387 -2.6465 -3.6910 4.7147 -4.2425 -4.2797 -5.0757
-3.0820 -2.2414 -6.3829 6.2976 -0.4130 -5.3809 -3.2810 -3.3475 -1.2505 -0.2527 -6.3402 -5.4840 -1.2253 0.9334 -2.4419 -2.7756 1.5807 -3.6839 -0.0512 -0.7783 -4.5335 3.5807 -1.3915 -1.0486 -2.3874 -1.5002 6.1322 -4.7232 -5.2153 -5.7839
-1.8928 -1.3599 -5.8955 4.8340 -0.2779 -4.0732 -3.1694 -1.8245 -1.0996 -0.6242 -4.9467 -9.4392 -0.8473 0.7394 -2.9909 -2.5296 1.1417 -4.7947 -0.4458 -3.6946 -3.8451 2.8560 -2.5277 -2.2188 -3.3745 -3.4105 5.3690 -5.5249 -6.1191 -6.5037
-1.6648 -1.0376 -7.3227 0.1249 -0.3547 -3.4686 -1.0385 -1.1326 -1.2544 -0.1143 -2.7344 -12.8654 -0.1135 0.8940 -2.2268 -4.8785 0.0442 -4.4874 -1.2657 -2.8604 -4.5879 1.8959 -2.1686 -2.9983 -3.5365 -5.0781 4.9012 -4.3059 -4.9994 -7.0033
-0.8395 -0.5769 -4.2862 -2.6289 -0.5543 -4.7161 -3.4265 -0.8242 -0.7758 0.5268 -3.3844 -11.7620 0.8428 1.1775 -1.9265 -6.1100 0.1074 -3.2699 -1.7737 3.1649 -3.8725 2.5141 -0.2011 -2.8079 -2.2189 -4.1394 6.2694 -1.4155 -3.1089 -7.7669
0.1722 -0.3260 -0.7290 -0.9606 -0.6490 -6.4967 -6.9350 -0.0019 0.2448 0.3853 -6.0123 -6.0742 1.7402 1.2570 -2.9484 -4.4576 1.9121 -2.3831 -1.8841 6.0799 -0.5027 4.5531 0.5994 -2.0300 -0.0269 -2.0882 8.9283 -0.4120 -2.4193 -7.3177
-0.4495 -0.6822 -5.8356 2.5595 -0.5529 -6.1476 -3.4901 1.5456 0.8209 -0.0662 -6.0495 -0.0033 2.8131 1.0469 -3.2497 -2.6457 4.4705 -1.9454 -1.6390 4.0558 2.8970 6.4997 -0.4378 -1.1050 2.5850 0.1914 11.3371 -1.4846 -2.0671 -4.2871
-1.0224 0.0379 -12.2413 4.2018 -0.3557 -3.6652 2.1830 2.9033 0.8886 -0.0418 -3.0812 1.9149 3.9060 0.6330 -2.1500 -0.9846 6.5423 -1.6941 -1.2109 3.4525 4.3898 7.4366 -1.0679 -0.4976 4.6904 2.7804 12.6729 -0.5136 -0.2793 -0.3225
0.4322 2.0681 -7.6360 2.7594 -0.2626 -1.9272 0.6476 2.6120 0.6888 0.2159 -0.9189 0.1991 4.2179 0.3411 -1.3661 1.5377 7.5954 -1.4629 -0.7924 6.4834 5.2546 7.8330 -0.2953 0.4677 6.1692 5.3523 14.0060 3.8209 3.0110 2.5352
2.9199 3.2130 3.1452 1.1540 -0.2829 -2.0249 -4.5486 2.2254 0.2961 0.1471 -1.0407 -2.1267 3.8969 0.2690 -1.6622 2.1336 7.4276 -0.8310 -0.7820 7.6417 6.1821 7.4687 0.0313 1.9332 7.3719 6.9784 15.7510 7.0055 5.7402 4.4202
4.6765 3.0202 7.4459 1.7635 -0.1567 -2.1139 -4.4128 3.7046 0.1516 0.0629 -1.5988 -2.5082 3.4300 -0.0262 -2.0634 0.5644 6.3254 0.0182 -1.3509 3.9719 6.0668 5.8247 -0.9373 2.5861 7.6159 6.7143 15.9508 5.6621 5.8128 5.6075
3.9365 2.6981 2.0672 3.3506 0.0719 -1.2651 0.3939 3.9521 0.1723 0.5986 -1.1995 0.6328 2.3601 -0.4936 -1.5992 1.5876 5.2946 -0.1081 -1.6458 1.3659 5.1738 4.8262 -1.3461 2.8092 7.4215 5.2363 14.0959 3.1733 4.5865 5.8288
0.6897 2.6606 -7.5276 5.3492 0.0427 -0.1758 4.6158 1.3582 -0.2590 1.4315 0.3330 3.3014 1.2113 -0.4256 -0.3080 5.4756 4.6043 -1.6400 -1.3925 4.0977 4.5557 5.6919 -1.0335 3.6343 8.3255 4.0238 12.3910 3.6290 4.8796 5.8373
-1.2262 3.3355 -12.8916 6.9532 -0.2033 0.8320 6.6592 0.5730 -0.6228 1.7391 2.3604 0.2716 1.5656 0.1117 1.0172 8.3524 3.9321 -3.1343 -1.6142 7.2662 3.9391 5.8616 -1.9200 3.8411 9.5109 3.3953 11.7210 5.3149 6.0003 6.7169
0.6259 4.6354 -7.5078 3.9356 -0.4055 1.2254 6.1456 2.7543 -0.1793 1.6151 3.3999 -4.8421 2.8264 0.5323 1.9009 9.9509 4.0938 -2.9850 -2.0776 6.8770 3.3360 4.3861 -2.6892 3.3848 9.8500 3.5278 11.5232 4.9920 5.7603 8.1627
2.8988 4.7512 3.6681 -2.7141 -0.6081 0.3782 4.1201 3.2354 0.1098 1.6792 3.4893 -6.4002 2.8578 0.9109 2.5182 10.6567 5.1288 -1.6474 -1.6141 6.4398 3.1804 3.9406 -0.8715 4.2151 10.2073 3.9565 11.8926 3.0853 4.5292 8.0242
1.8226 3.0538 5.2432 -4.4488 -0.7209 -0.8138 3.2272 1.0611 -0.6243 1.7927 3.9325 -5.7857 1.3754 1.1860 2.7296 8.9708 4.7220 -0.9258 -0.8697 8.1806 2.5519 4.8515 1.2864 5.3518 10.1855 2.5092 11.8631 1.7113 3.5155 4.8426
-1.4445 1.4662 -6.3101 -0.9787 -0.5425 -1.2530 3.2191 -1.1106 -1.4343 1.7195 4.1468 -5.7126 -0.3609 0.9497 2.4085 6.2394 2.1662 -1.1475 -0.9502 7.9629 1.0910 4.8587 0.9079 4.6441 8.5779 -0.6474 10.0363 1.5728 3.0562 1.8029
-3.3788 1.1171 -13.9754 -1.3450 -0.4563 -1.0930 3.1928 -2.7079 -1.5634 2.1049 3.5844 -6.7855 -1.4445 0.7737 2.6045 5.1082 0.1046 -0.8792 -1.0664 4.0404 0.2307 4.1472 0.0057 3.8744 7.3895 -1.9713 8.0366 1.9583 3.6108 3.2698
-3.3682 1.0853 -9.4990 -5.4788 -0.8490 -0.6241 4.3408 -3.6579 -1.4778 3.2042 3.6865 -8.9815 -1.5235 1.4144 3.9740 5.7362 0.2274 0.4802 0.1282 1.7570 0.2301 4.4190 1.1395 5.2747 8.6848 -0.5848 8.1982 1.5570 4.3680 6.8167
-3.9052 0.7361 -7.3818 -6.8807 -1.2941 0.0912 6.0641 -3.6579 -1.4714 4.1228 4.7489 -9.9396 -1.0586 2.2473 5.2016 7.7709 1.2208 1.7884 2.4175 3.5851 -0.0588 5.2190 2.9325 7.0189 10.1882 0.4657 9.2920 -0.2539 3.3044 7.0077
-5.5265 0.4666 -13.2734 -8.4253 -1.3627 0.7449 7.6205 -4.0178 -1.5259 4.3474 5.6496 -7.8492 -1.0670 2.4641 5.2932 9.9560 1.5525 1.9543 4.0870 5.3765 -0.1966 5.1006 3.2818 7.0881 9.8203 -0.3325 8.9579 -1.3349 1.8794 5.1052
-6.1022 0.2177 -14.5753 -12.5114 -1.3090 0.8035 10.7184 -4.9944 -1.6386 4.1109 5.9435 -5.4208 -1.4703 2.3925 4.9282 9.3936 1.4076 1.2445 4.0158 6.6949 0.8728 4.3188 2.8694 6.8319 9.2899 -1.4850 7.7215 0.8664 3.4132 4.6466
-5.5558 -0.4823 -10.8884 -10.8599 -1.3265 -0.2214 12.8462 -4.6418 -1.3744 3.2952 4.9362 -5.7534 -1.2673 2.4077 4.3194 6.5382 1.4225 0.4216 3.0677 10.0875 1.6807 3.6876 3.2246 7.4430 9.3697 -2.2322 7.2786 3.8903 5.8017 3.5494
-4.8480 -0.9017 -11.4352 -2.6922 -1.2031 -1.4877 7.9062 -2.3046 -0.6156 2.0855 2.4163 -8.6194 -0.2590 2.2111 3.2601 5.6792 1.3456 -0.4035 2.4831 11.5757 0.1019 2.9203 3.7387 7.5975 8.6143 -3.5260 7.4847 2.6300 4.2569 0.3663
-2.9110 -0.1411 -10.6385 0.7017 -0.9570 -1.2006 -1.6222 0.4250 -0.2629 1.5864 0.4622 -11.6906 1.0190 1.7795 2.7586 7.5808 1.0789 -1.1213 2.3789 8.2821 -2.6794 2.3057 3.1578 6.7214 7.6553 -5.0491 7.4044 -2.3944 -0.1153 -1.4418
-0.9393 0.3543 -5.0522 -2.1160 -0.8603 -0.0266 -6.2384 1.4018 -0.7889 1.9593 0.1371 -11.6717 1.8971 1.5625 3.0708 7.8070 1.2915 -0.9850 2.5882 6.2655 -3.8394 2.9894 2.4037 6.2040 7.7373 -5.1158 7.0724 -5.0863 -2.0688 -1.0175
-2.2297 -0.9682 -6.0826 -3.5119 -0.9018 -0.5840 -4.2997 -0.1671 -1.3280 1.9247 -0.6258 -7.4213 1.7473 1.6371 2.5996 4.5316 1.8756 0.1052 2.8569 7.8907 -3.0913 4.1873 2.6986 6.2590 7.3427 -3.8795 6.8696 -2.6606 -0.1536 -0.8029
-4.2825 -2.0506 -11.4999 -3.7392 -0.9000 -2.2300 -1.6631 -1.8498 -1.1333 1.2907 -2.2580 -3.4366 1.0166 1.6928 1.2914 2.0041 1.8720 1.0017 2.4845 7.4367 -2.4285 3.7752 2.7852 5.6252 5.7095 -3.2651 6.8816 0.9019 2.3577 -0.3267
-2.4492 -0.6607 -7.5566 -3.8819 -0.8522 -1.4952 0.7570 -0.7969 -0.6016 1.3845 -1.7879 -4.4881 0.8828 1.6036 1.2082 3.3284 1.2864 0.9049 1.7427 5.0830 -3.2757 1.9005 1.5402 4.6426 5.1384 -4.0373 7.1265 0.7691 2.2935 0.8228
0.5237 1.2245 -0.3220 -0.2340 -0.8107 1.5302 4.7443 1.3606 -0.3023 2.3462 1.5433 -7.7152 1.4246 1.4329 2.5528 5.7895 1.3221 0.3784 2.0147 7.3591 -4.4626 0.9536 0.8736 4.9393 6.7641 -4.7353 7.7207 -2.1577 0.2783 -0.0271
0.8102 1.5778 -0.0990 3.0205 -0.7605 2.9025 5.8047 1.7994 -0.0671 2.6843 4.1985 -7.7204 2.2109 1.2329 3.2836 6.1256 2.8717 0.3283 3.1501 14.0172 -3.1491 2.2835 2.4452 6.2234 8.9361 -3.0787 9.1590 -1.7239 0.4826 -1.8351
0.9548 1.8227 0.4886 0.2817 -0.6985 1.4714 1.5914 2.0735 0.4285 1.8385 3.9006 -5.1776 3.2595 1.0607 2.7431 5.0645 5.1211 0.7363 3.3714 17.6982 0.5831 4.4350 4.1546 6.4898 10.0608 0.9575 11.3410 3.9422 4.4280 -0.0032
2.0928 2.5705 2.8691 -1.0340 -0.5591 0.3827 0.7697 3.8292 0.8985 0.7659 2.8071 -2.4227 3.6484 0.8428 2.0784 5.0259 5.8679 0.8246 2.2399 13.9051 2.9186 4.6567 3.1071 4.9371 9.3479 3.8465 12.1525 7.4412 6.9784 4.1497
1.5608 2.2264 -1.3281 4.1373 -0.2322 1.4650 8.3605 4.5700 0.9468 0.0644 3.1203 0.6465 2.4347 0.3374 1.6536 6.1822 4.2592 0.0579 0.8734 5.7010 2.1127 2.4465 -0.1354 2.6878 7.0521 2.8258 10.1050 3.1940 3.9592 5.0994
0.3271 1.0034 -6.4741 6.6297 0.0972 2.8408 14.2853 3.0411 0.7327 -0.2443 3.5919 2.2860 1.1632 -0.2654 1.0653 6.1836 2.4994 -1.2629 0.1590 1.1708 1.0859 0.9012 -2.2919 1.5540 5.6127 0.4416 8.1583 -3.0767 -0.6206 2.4556
0.5330 0.7351 -5.1496 2.3185 0.0368 2.3221 9.6120 1.7116 0.6546 0.1023 2.3354 1.5090 1.7148 -0.2575 0.4993 4.2426 3.0190 -1.9867 0.5208 5.3190 3.0003 2.7014 -1.2403 2.4413 6.8917 1.2855 10.1513 -2.6052 -0.5153 0.1988
1.0239 1.5456 -3.1835 -0.5102 -0.3437 -0.1349 0.3619 2.2605 1.0727 0.6270 -0.4195 1.1942 3.5137 0.3719 -0.2328 2.5146 5.2609 -1.0721 1.4317 12.3854 6.9124 5.9785 1.4153 4.0386 9.0753 5.2231 14.1330 4.3236 4.2165 1.1796
1.5409 2.1843 -2.7808 1.3457 -0.5263 -2.7340 -3.0246 4.0842 1.8610 0.2383 -2.7770 1.3648 5.0822 0.6956 -1.6104 2.0474 7.0390 0.8943 1.5297 12.5036 9.0275 7.1272 2.3199 4.3962 9.7126 7.7934 15.3633 9.7678 8.4916 5.2740
2.3945 2.1895 -1.9079 3.0578 -0.3283 -2.8875 1.4059 5.1050 1.8521 -0.4623 -2.5011 -0.4302 5.2988 0.3321 -2.3969 2.2912 7.0721 1.8570 0.9078 6.4133 7.5377 5.8887 0.8013 3.5208 8.8515 6.6434 13.8679 8.4680 8.2895 8.2707
1.9921 2.1523 -3.8829 2.8653 -0.0215 0.1106 6.9098 3.2865 0.5610 -0.0080 0.1029 -2.1494 3.6740 -0.2107 -1.4011 3.3860 5.5197 0.4983 0.6730 3.2281 4.3632 4.3669 -1.0895 2.2467 7.0968 3.7477 12.2756 2.8627 3.8137 5.5337
1.1628 2.6175 -6.4638 2.2833 0.2203 3.0583 6.2346 0.6311 -0.2618 0.9156 1.4052 -1.3796 1.7889 -0.6636 -0.3728 4.0680 3.9457 -2.2041 0.2125 6.3008 2.1100 3.5016 -2.1132 0.5640 4.6028 1.6083 10.5755 -0.8490 -0.7992 -1.0847
2.5127 3.3772 -3.5874 2.9414 0.4285 2.9090 1.2028 0.9997 0.5884 0.8395 -0.1393 -0.8417 1.5837 -1.1310 -0.9286 2.3179 3.4662 -4.1958 -1.4792 10.8309 1.0919 2.9379 -2.3766 -1.2540 2.3084 0.3020 8.7459 -0.1364 -2.0431 -5.9772
4.6810 3.9072 1.7337 5.0986 0.5352 1.5472 -0.2622 2.7405 1.4502 0.5154 -1.3594 -2.9256 2.0030 -1.3734 -1.2483 0.0346 2.7727 -4.5161 -3.1856 10.9255 0.0189 2.2564 -2.0448 -2.4488 0.8663 -0.9585 8.4198 1.1045 -1.6428 -7.2833
4.7247 3.6850 4.8714 3.9988 0.3588 1.6025 2.2055 1.7469 0.8096 1.1334 -0.4439 -5.5421 1.3172 -0.9532 0.1833 -0.1105 1.1055 -3.3798 -3.1183 5.5500 -0.9045 1.7742 -1.6843 -2.7473 -0.0721 -1.3084 8.9296 -1.0622 -2.9146 -6.3325
2.9064 2.0900 5.7342 -3.4378 -0.1010 1.2760 1.6617 -0.2661 0.0015 1.7520 -0.2368 -6.7180 0.8108 0.0388 1.3319 -0.5651 0.5911 -1.3977 -1.3527 -0.1098 0.1429 2.6799 -1.7850 -1.9395 -0.2578 0.1411 8.0076 -4.2989 -4.6317 -4.3258
0.6614 -0.5122 2.4285 -9.7698 -0.5413 -0.8263 -2.7651 0.1967 0.5722 1.3276 -2.4041 -6.3231 1.8177 0.9184 0.5015 -3.8871 2.0131 0.1632 0.6808 -1.4989 2.8416 5.0446 -1.6060 -0.2490 0.1970 1.5913 6.0430 -4.0697 -3.7502 -2.9049
-1.7181 -2.1194 -5.7517 -7.2398 -0.5712 -1.5718 -5.4102 0.9800 1.4459 0.7017 -4.1722 -2.6371 2.2267 0.9774 -0.7149 -5.7383 2.7536 -0.0387 1.5067 -0.0188 4.0873 6.4416 -0.9071 0.6993 -0.6813 0.8985 4.1965 -1.2837 -1.8850 -4.1494
-3.2139 -1.4170 -12.0165 0.4695 -0.1408 0.7942 -4.6324 -0.5715 1.1127 0.6321 -3.6034 2.9544 0.4219 0.1787 -0.7809 -1.3476 1.4614 -1.5971 0.8075 2.0763 2.0614 5.0324 -0.9237 0.0628 -3.0747 -1.4469 1.6573 -0.9026 -3.0377 -7.6810
-2.4793 0.0504 -10.0167 5.2662 0.2348 3.1997 -3.2207 -1.8376 0.2878 0.6123 -2.3946 2.2273 -1.1775 -0.5307 -0.3010 4.8652 0.2086 -2.2886 0.2330 5.1369 -1.2578 2.9714 -1.2080 -0.1866 -3.4365 -3.9642 -1.0654 -3.8718 -6.2255 -10.1641
-1.1534 0.0702 -4.7795 4.7374 0.0792 3.0191 -2.2319 -0.9781 0.0421 0.5477 -1.9298 -5.8281 -0.6473 -0.2665 0.3561 5.7207 0.9267 -0.6343 1.3675 8.6824 -2.4301 3.4781 0.3830 1.6627 -0.0962 -5.5929 -1.3747 -5.4524 -6.4618 -9.1561
-1.6010 -0.9895 -4.3256 1.5602 -0.3729 0.8562 -1.6071 -0.2546 0.0350 0.9185 -2.0832 -9.9878 0.4663 0.5643 1.5480 2.7156 2.9380 2.1288 3.4423 11.0477 -1.0286 5.8184 3.2365 4.2088 3.9524 -5.4232 0.5081 -2.2819 -2.2145 -5.0548
-2.4751 -1.4777 -5.8629 -0.5486 -0.6500 -1.4224 -2.1300 -0.0055 0.2289 1.4123 -2.7347 -6.3767 1.1949 1.0769 2.7197 1.4661 4.2792 3.5091 4.9282 12.2731 -0.0209 7.0346 4.6472 5.4591 5.8687 -4.4219 1.2121 2.5488 2.4933 -0.6692
-2.3191 -1.2734 -5.2490 0.2151 -0.6461 -0.9244 -1.9779 0.7985 0.8434 1.6199 -1.6136 -2.8370 1.6916 1.0646 3.5324 3.0218 3.5820 2.5210 5.2491 13.1937 -1.4729 6.2456 4.0009 5.3165 5.5948 -5.4715 -1.0321 3.0354 2.7967 -0.4073
-2.9254 -1.0538 -6.1374 1.1620 -0.4633 3.9160 2.9235 -0.2942 0.5517 2.0024 3.8645 -2.9108 0.5643 0.7496 4.7858 6.1266 0.9464 0.3242 4.2342 12.7299 -4.6848 4.1692 2.4450 4.6701 4.1582 -8.8895 -4.6963 -1.9505 -1.3105 -4.5284
-4.5013 -0.9912 -7.9672 -1.0543 -0.3649 8.5307 9.3414 -3.6798 -1.1966 2.5851 9.0087 -5.2315 -1.7374 0.6189 5.8456 8.6909 -1.6088 -0.9274 2.7038 10.3037 -7.4074 2.3438 1.4774 4.5413 3.0622 -10.8106 -6.4410 -6.2364 -4.3516 -6.8191
-4.6995 -1.2088 -6.8423 -2.8246 -0.5795 6.8864 6.6690 -4.3524 -2.1091 2.4578 6.2406 -8.7343 -1.8111 1.0475 4.6967 6.9707 -1.6972 -0.2036 2.3188 9.1186 -7.2399 2.9037 2.5141 5.3149 3.7075 -8.7155 -4.2264 -3.9704 -2.0896 -4.0719
-3.6245 -1.4973 -6.1110 1.1148 -0.8277 1.2037 -4.8401 -1.2813 -1.0968 1.5357 -1.5154 -9.1168 0.2374 1.5042 2.1237 2.0201 0.3602 0.9359 2.8397 10.6323 -4.4656 4.8915 4.4652 5.9670 5.8030 -5.3206 -0.4555 2.2833 3.1441 0.2316
-2.8440 -1.2752 -6.2486 5.9346 -0.7975 -1.6728 -10.8059 0.4908 -0.1894 0.8938 -4.8536 -4.7771 1.1155 1.4171 1.1760 0.0790 2.2545 0.7149 2.6100 10.5653 -1.9033 4.8683 4.7611 5.8250 7.5848 -3.6884 1.0269 5.4775 6.2888 3.4998
-1.9903 -0.8404 -1.8184 3.7141 -0.7304 -0.8849 -6.1329 -0.2456 -0.0790 1.0039 -2.9852 -1.8248 1.0283 1.2190 1.9316 1.6414 3.2515 -0.0022 1.9445 7.7908 -0.5787 3.2611 4.1102 5.6328 7.7470 -2.6844 0.4830 3.9389 5.7571 5.0541
-0.7528 -0.8087 3.8956 -2.1370 -0.8210 -0.2323 -1.1160 -0.0534 0.6295 1.2374 -1.6286 -3.2133 1.8634 1.3096 1.7855 1.6670 3.9034 0.3150 2.0128 7.0034 -0.1866 3.0168 4.6401 5.4713 6.7929 -1.1355 0.2445 1.8288 3.9422 4.2374
-0.1473 -0.6992 2.7659 -3.4172 -0.7724 -0.5886 -0.4227 1.5513 1.5430 1.0365 -1.6441 -5.2303 2.4903 1.2047 0.2931 0.0146 3.7674 1.0987 1.7610 7.5813 -1.6874 3.4223 4.8015 4.4217 6.1165 -0.6890 0.0999 1.6734 3.4991 3.8515
-0.3980 -0.0972 -3.8376 0.1331 -0.3620 -0.1211 1.1721 2.3086 1.3262 0.5182 -0.8025 -5.3657 1.7709 0.4357 -0.9594 -0.5364 2.5582 0.9817 -0.1362 4.8653 -4.2300 2.5986 2.3615 2.6516 5.6181 -1.1844 -0.7668 2.1984 4.2924 6.1279
-0.6427 0.3132 -7.6162 4.1920 0.0834 1.3210 2.9252 1.6905 0.6694 0.0985 -0.2773 -3.2439 1.1496 -0.4736 -1.5772 -0.7078 1.8203 0.0797 -2.2095 1.6790 -4.3979 1.8629 -0.5398 1.6010 4.4086 -0.1049 -0.9614 2.3650 4.4991 7.1145
-0.7487 0.2599 -5.6819 5.8737 0.0805 2.3792 0.1327 0.5423 0.5652 0.0941 -1.3899 -0.0035 1.4693 -0.5295 -1.6986 -0.6381 2.7428 -0.5526 -2.2422 2.8122 -1.6807 2.5340 -0.7647 2.0796 3.7926 1.8253 0.3916 2.5590 3.9455 4.9695
-1.6715 0.2703 -5.5970 4.7777 -0.2416 2.9216 -1.8606 -0.5850 0.5080 0.4871 -1.6121 0.7149 1.6603 0.1476 -0.8957 1.0854 3.6015 -0.7758 -0.8393 5.5625 0.3513 3.4145 0.3530 2.8323 5.0343 1.2487 1.3238 2.5602 3.6169 3.6746
-2.8553 0.3191 -11.4306 4.5108 -0.2427 3.4102 3.0711 -0.9400 0.2957 0.7697 0.0981 -1.7655 1.1997 0.2560 -0.0468 1.8774 2.3760 -1.3111 -0.4650 6.1643 -0.9321 3.2419 -0.5164 1.8864 5.4689 -2.0766 0.0628 1.5507 2.8347 3.1989
-1.7217 0.2847 -12.4767 7.5572 0.2226 3.3264 6.8774 -0.0198 0.4618 0.5050 0.2925 -3.8067 0.6569 -0.6480 -0.4911 -0.6156 0.4565 -2.7059 -1.7541 4.5776 -4.1871 1.8528 -3.0466 -0.3229 2.9046 -5.1833 -2.3173 -0.6365 0.5865 0.6134
1.4036 0.8160 -3.3154 9.2939 0.5864 3.1585 2.8852 0.9501 0.4876 0.3337 -0.9065 -5.3040 0.1760 -1.4457 -0.7057 -1.8238 -0.1264 -4.9580 -3.0142 1.9523 -6.2572 -0.1372 -4.2767 -1.3223 0.5263 -6.2259 -4.1543 -3.8732 -2.4036 -1.8781
2.8261 2.0395 3.7509 5.3011 0.5188 4.7281 0.4497 0.6806 -0.4806 1.2279 1.6975 -8.6717 -0.3912 -1.3563 1.3440 1.9861 -0.2922 -6.8185 -3.0202 1.5293 -6.0934 -1.3451 -3.6338 -0.4206 1.2859 -5.8228 -5.3347 -7.2946 -4.9285 -2.3558
1.8238 2.8211 2.0122 -1.2245 0.3141 7.0423 4.8077 -0.0632 -1.6369 2.4664 6.6819 -10.4177 -0.7333 -0.9278 3.6272 5.7750 -0.8281 -6.4639 -2.1586 4.5733 -4.7943 -1.1651 -2.9086 0.6660 2.8464 -4.8877 -5.7508 -7.8977 -5.3736 -2.4435
0.5601 2.3230 -0.8876 -5.2088 0.1474 6.5767 6.0322 -0.7224 -1.7580 2.5323 6.1687 -6.9564 -0.7584 -0.5441 3.3211 4.4030 -0.3703 -3.9755 -1.1639 6.2668 -2.8360 -0.0764 -2.2857 0.8378 2.9485 -3.5342 -4.5411 -4.0953 -2.5975 -1.3508
-0.7630 1.1570 -2.0305 -5.5682 -0.1604 3.2355 0.7914 -1.8415 -1.3121 1.8059 0.2247 -3.6076 -0.8439 0.1601 1.8653 0.9565 1.2903 -1.4246 -0.5973 5.1089 -0.5887 2.0584 -0.6640 0.4751 2.9680 -2.2536 -2.2077 -0.0092 0.4963 1.1006
-2.4428 0.2368 -5.6565 -3.4167 -0.4497 0.5963 -1.9806 -2.2818 -1.2402 1.4895 -3.5654 -4.6166 -0.9833 0.8531 1.5239 -0.4738 2.8069 -0.6325 -0.8936 5.0677 0.6082 4.6475 0.8097 -0.1193 3.0750 -1.7144 -0.8711 -0.5527 -0.4088 0.6607
-3.0779 -0.4261 -9.9243 -0.3394 -0.3574 -0.0266 0.0217 -0.7097 -1.3389 1.2611 -3.2297 -5.5347 -0.7937 0.7527 1.3673 -0.7795 3.5404 -1.5028 -1.6043 5.0882 0.3720 5.5365 0.5690 -0.8641 1.1994 -1.6486 -1.1241 -4.2067 -4.2353 -3.5155
-2.2097 -0.7051 -8.8569 1.6777 -0.0997 -0.2805 1.3074 0.8983 -1.4719 0.6956 -2.4439 -3.9728 -0.4548 0.2899 0.5586 -0.1785 3.2844 -2.2066 -1.6513 2.8433 -0.4634 4.8452 0.3139 -1.2538 -1.5939 -1.7691 -0.9868 -5.4435 -6.0360 -6.2419
-1.2667 0.0078 -4.2129 1.7836 -0.0337 -0.5590 0.3189 0.3160 -1.9760 0.4538 -2.4625 -2.2757 -0.7355 0.1860 0.2854 2.5136 2.6493 -2.0990 -1.0107 2.2125 -0.9978 4.8503 1.3295 -0.9900 -1.8893 -1.9444 0.6735 -2.3790 -4.0050 -4.8053
-1.0327 1.0950 -2.8582 1.9080 0.0119 -0.1556 -1.9518 -0.9394 -2.1377 0.6014 -2.8591 -0.1577 -1.5568 0.0304 0.5625 4.0962 3.2772 -2.6960 -0.8161 3.9918 -0.2824 5.1785 1.3937 -0.4635 -0.3718 -1.5043 2.1276 1.5079 -0.8124 -2.2774
-0.7287 1.1521 -3.1428 4.1609 0.1204 0.1837 -4.5177 -1.0010 -1.3461 0.6142 -4.3331 1.1135 -1.6556 -0.3565 0.2164 1.7442 4.7022 -4.0637 -1.2340 3.1607 1.0942 4.2042 0.1427 0.0556 -0.2937 -0.9393 1.7102 2.2552 0.3382 -1.7209
-0.0484 0.1611 0.8814 5.9931 0.0176 -0.4113 -3.7812 -1.1355 -0.8753 0.7319 -5.9181 -2.5885 -0.7028 -0.2866 -0.2041 -1.2431 4.5767 -4.4551 -0.8343 0.3317 0.8543 3.1622 0.5831 0.7210 -0.9599 -1.6343 0.2451 0.1400 -0.6215 -2.0272
-0.3463 -1.0150 3.0554 3.9144 -0.2103 -1.3348 0.9589 -1.8815 -1.3579 1.0372 -5.3524 -8.0635 0.1977 0.1892 0.2189 -2.8345 3.0927 -3.7772 0.9304 0.2813 -1.2928 3.6395 2.7482 1.2754 -0.1151 -2.7882 -0.9297 -0.6318 -0.4924 -0.6425
-2.4274 -2.0577 -5.3082 0.1428 -0.2688 -1.8716 3.4658 -1.3638 -1.2813 0.9179 -3.7278 -7.5919 0.5494 0.4225 0.5248 -4.6037 2.4061 -2.9026 2.6188 1.8547 -3.3236 4.5719 3.6755 1.4360 0.8324 -2.9599 -1.6809 2.1257 2.2832 1.9140
-4.6068 -2.7699 -14.8073 -1.8133 -0.3096 -1.8591 -0.0788 -0.3702 -0.2939 0.6015 -3.7605 -1.5342 0.4609 0.5589 0.0973 -4.9141 2.9474 -1.9357 3.2429 2.0816 -4.0653 4.7148 3.3989 2.0764 0.2969 -2.9495 -1.6307 4.9998 4.6563 2.4865
-4.8259 -2.8706 -12.2420 -1.7819 -0.5136 -1.3685 -4.7808 -1.3431 0.0204 0.9649 -4.7253 2.5366 -0.0191 0.8796 0.0305 -2.3518 3.9177 -1.8004 3.4189 2.6747 -3.6535 4.6907 4.0041 3.8458 -0.0899 -3.4862 -0.2501 4.3021 3.8369 -0.0998
-3.3023 -2.4204 -3.6353 -0.9040 -0.6320 -0.7542 -4.5254 -2.5321 -0.6133 1.8138 -4.0885 -0.2366 -0.0857 0.9662 0.8652 -0.1871 4.5719 -3.5076 3.5896 4.8470 -3.1885 4.9380 4.6811 5.3186 0.7034 -4.3277 0.6308 1.2818 1.3104 -3.1490
-1.8063 -1.4901 -0.6577 -1.2747 -0.5001 0.2929 0.3689 -1.7964 -1.0747 2.3446 -1.1866 -6.5539 0.4545 0.6270 2.1102 0.9785 3.8736 -5.5391 3.4549 6.3623 -4.3145 4.2213 3.3490 5.0793 1.3758 -6.2473 -1.4570 -0.7203 -0.1788 -3.7270
-1.7111 -0.3510 -3.0081 -2.4640 -0.3592 2.1239 5.1074 -1.2427 -1.0516 2.4831 2.3716 -9.1777 0.5317 0.3728 3.3410 3.9615 2.1640 -5.4241 3.2153 6.1813 -6.5051 2.4610 1.3895 4.3288 1.6401 -8.6572 -4.6534 -0.3075 0.4031 -1.6719
-2.6231 0.2107 -6.5058 -0.4188 -0.4117 3.1857 6.1055 -1.3033 -0.5579 2.4477 3.3816 -6.9164 0.6916 0.5164 3.7349 6.6373 1.6324 -3.1700 3.5111 5.3655 -7.1329 2.2037 1.6879 4.7138 2.6714 -8.4707 -4.7378 2.0131 2.7894 1.8847
-2.8137 -0.0924 -8.9655 3.3735 -0.5378 2.2649 3.5498 0.4269 0.5869 2.1664 0.6000 -4.0568 1.9813 0.7688 2.8061 5.4075 2.5697 -1.1082 4.0851 4.0160 -5.4299 3.8960 3.1405 5.3710 4.0330 -5.5858 -2.1698 3.8390 4.8558 5.0436
-2.2657 -0.7622 -8.5754 3.3864 -0.5741 0.6258 0.2401 2.0941 1.5123 1.6837 -2.5875 -1.2624 2.6713 0.8692 1.7542 3.1153 2.8042 -0.4559 3.8867 2.3250 -3.2011 4.4430 2.6001 4.8688 4.1153 -3.4220 -0.9556 2.5368 3.9099 5.2114
-2.0782 -1.1221 -5.3055 1.2353 -0.4975 -0.6841 -1.1669 0.6365 1.1165 1.1653 -3.3867 1.6719 1.5910 0.7949 1.4820 3.1047 1.9587 -0.1573 2.4827 2.8146 -2.1856 3.2812 0.6770 3.7309 3.4791 -2.4744 -1.8065 0.1999 1.5732 3.4034
-0.9869 -0.4347 0.6163 1.0424 -0.3299 -1.4058 0.3748 -0.9204 0.0573 0.7336 -3.0756 0.5329 0.8092 0.4979 1.2693 3.5942 1.6217 -0.0088 0.6637 6.2698 -2.7911 2.8687 -0.1621 2.8477 4.0858 -1.0335 -2.7468 0.5570 1.5170 3.8667
0.9688 0.9770 3.8422 1.5563 -0.1322 -0.4581 4.3404 0.6343 -0.4212 0.7271 -2.1548 -3.9049 1.0687 0.1004 1.0143 3.9448 1.5690 -0.9936 -0.0811 8.7137 -3.9696 2.9472 -0.3011 2.1689 5.8711 -0.3027 -3.2987 1.0600 2.2367 6.3110
0.2755 1.3352 -4.4890 1.4593 0.0629 1.7510 8.0682 2.2780 -0.4833 1.1823 0.2846 -3.4038 0.5290 -0.2248 1.2922 5.7924 0.3318 -2.2083 0.8879 7.2881 -4.0425 2.0249 -0.9855 1.8220 7.1161 -1.0327 -3.2617 -2.1922 0.3178 6.5247
-1.9001 0.2293 -14.5494 1.1553 0.2827 2.6659 8.3500 1.5754 -0.6481 1.2968 2.1385 1.4708 -0.2767 -0.5960 1.3920 6.7451 -1.4883 -2.5359 2.1395 4.1242 -3.1635 1.2996 -1.6611 1.8101 7.0062 -0.9570 -2.1978 -6.0841 -2.3855 4.7746
-0.1608 -0.3113 -7.7348 0.0468 0.4499 1.9456 5.5984 1.4235 -0.5300 0.5975 1.0474 0.8646 0.8852 -0.9904 0.6277 3.7329 -2.0976 -3.1659 1.7539 2.2592 -3.2605 1.2817 -2.3351 0.9790 5.7104 -0.5771 -1.9049 -6.1528 -2.6608 4.0912
3.8009 0.8036 4.9165 0.7431 0.5827 1.8001 2.5614 3.2923 0.0134 -0.2788 -1.3487 -3.3315 2.6902 -1.3272 -0.4802 0.1024 -1.3374 -4.4632 -0.3988 2.4695 -4.3383 0.3950 -4.3401 -1.5395 3.1538 -2.2446 -3.7536 -4.1460 -2.2264 2.9197
4.3994 2.1715 2.2284 7.4909 0.8989 2.5936 -0.1749 4.3883 0.4184 -0.8101 -2.7570 -0.5456 2.6707 -1.9033 -1.8048 0.2500 -0.2435 -4.9692 -3.0260 3.6572 -4.6508 -0.9566 -6.9641 -4.5918 -0.3813 -4.0805 -5.3323 -4.0788 -4.2198 -1.5847
3.5269 2.5182 -4.2754 16.0595 1.2530 2.8955 -1.9365 4.1830 0.7564 -1.2114 -3.1072 5.3852 2.2634 -2.5471 -3.2645 2.0242 0.6669 -4.7456 -4.7929 4.1650 -4.3031 -1.0215 -7.6384 -6.2959 -3.2094 -4.0175 -4.6756 -6.6101 -7.9458 -7.2016
5.1076 2.1312 2.3689 16.9118 1.2084 2.4766 -0.2872 5.2874 1.4844 -1.5313 -2.7955 4.3744 3.2140 -2.4758 -3.6332 1.4329 1.4758 -4.6330 -5.0384 2.9247 -3.6335 0.0903 -6.5224 -6.4086 -4.2299 -3.5276 -3.2061 -9.0577 -10.2960 -9.7781
6.2214 1.6200 9.4928 9.9858 0.8132 1.8406 3.1530 7.0379 1.9148 -1.4427 -2.1645 1.2528 3.8252 -1.6747 -2.5173 -0.7216 2.4001 -3.8353 -4.2523 0.1822 -1.3987 1.4778 -6.1032 -5.9959 -4.6876 -2.7776 -2.0320 -7.9199 -9.2148 -8.5499
4.2748 1.3117 5.9486 4.6980 0.4558 1.1391 3.2374 6.4897 1.2472 -0.9836 -2.1386 2.9716 3.1803 -0.9020 -1.5471 -1.5945 3.4539 -1.8226 -3.4918 -1.1791 1.3722 2.7439 -6.2869 -5.4551 -5.2605 -0.6612 -0.9175 -3.5582 -5.9070 -6.0155
2.8382 1.3261 3.3687 5.1585 0.2974 0.6378 -0.0951 4.7853 0.4457 -0.6877 -3.3976 3.6637 2.9983 -0.5932 -1.9818 -1.3407 4.1887 0.3818 -3.0654 1.2063 2.0434 3.6460 -5.2552 -4.5794 -4.8618 1.5121 -0.3132 -0.9797 -4.1334 -4.9831
3.2600 1.0039 4.4213 6.7111 0.3944 0.3752 -2.8108 4.4040 0.5967 -0.9129 -5.2801 1.1399 3.1279 -0.8288 -3.0539 -2.2095 4.0801 1.7747 -2.6755 2.9444 1.5620 4.2839 -3.7598 -3.8598 -3.9912 2.4404 -0.3798 -2.3970 -5.1135 -5.4818
1.3952 -0.2093 -3.7917 6.5980 0.7140 0.2711 -4.1585 3.1534 0.8388 -1.3331 -5.8306 3.5051 1.4181 -1.4176 -3.1866 -3.7170 3.1039 1.7151 -2.4059 -0.6801 1.9798 4.6228 -3.4647 -3.6950 -3.7923 2.7591 -0.4114 -4.0279 -5.6127 -4.8110
-2.5910 -0.9435 -16.0645 6.5521 0.8660 0.7993 -4.5942 -0.5236 0.3033 -1.2341 -3.9369 8.3457 -1.1561 -1.6466 -1.8013 -2.7257 1.7054 0.2487 -2.3174 -4.0105 1.8077 4.2261 -3.5569 -3.2991 -3.1780 2.4097 -0.3838 -2.5477 -3.4789 -2.2639
-2.8504 0.1689 -13.4973 5.9945 0.5705 2.0562 -2.1282 -2.0611 -0.1647 -0.4312 -1.2184 3.8119 -1.2890 -1.1018 0.0046 -0.0393 0.5031 -0.9109 -1.8288 -1.0734 -0.2989 3.4497 -2.8115 -2.3842 -2.0069 0.5464 -0.5593 0.5989 -0.8847 -0.7695
0.5913 1.4444 -0.6666 2.9880 0.1689 3.0918 2.8935 0.5938 -0.0076 0.4062 0.2594 -5.3729 0.5957 -0.3994 0.7981 0.2110 0.1281 -0.1837 -0.5294 1.9177 -1.6092 3.4183 -1.7160 -1.7816 -1.8077 -1.3618 -0.1954 2.3108 0.0627 -1.0198
1.5519 0.7921 3.6511 -1.3164 -0.0389 2.7636 5.9842 2.0864 0.1176 0.7981 0.5598 -4.6559 1.2713 -0.0166 0.9515 -0.6077 0.9032 1.7956 1.3404 -0.2698 0.4259 4.4790 -0.2417 -0.8703 -1.1999 -0.5370 1.4786 1.8442 0.2929 0.1050
-0.6526 -0.5516 0.4719 -5.0315 -0.3043 1.0236 4.8834 0.2570 0.0979 1.1543 0.3659 1.8711 0.7598 0.4868 1.9360 1.8753 2.3673 3.5301 3.2663 -0.8622 3.4828 5.7126 2.5146 1.6850 1.7186 2.1260 3.5507 0.9764 0.8948 2.6095
-1.7858 -0.5725 0.1318 -5.9025 -0.7074 -0.2649 2.7511 -0.6645 0.2202 1.8199 0.0871 1.3755 1.0563 1.2249 3.5734 4.9893 3.2844 4.1810 4.5201 3.3542 3.7885 5.8758 5.2409 4.1818 4.2823 2.8938 4.2165 1.6939 1.8979 3.5813
-1.4295 0.2160 1.4639 -0.9910 -0.9303 0.4520 3.0210 0.3050 -0.1389 2.4151 0.5169 -3.5765 1.5833 1.6758 4.2396 4.1031 2.7271 3.4614 4.7843 4.6050 1.7036 4.8470 5.3676 3.9705 3.7968 1.4685 3.3648 3.6027 3.1852 3.8316
-1.5587 0.5659 1.1066 6.3099 -0.9762 1.5469 3.5819 0.7595 -1.1820 2.6046 1.1438 -4.6477 1.4477 1.8807 3.5329 2.4891 1.6941 2.3396 4.6621 1.0859 0.3058 4.0919 3.5015 2.2579 2.4204 0.9159 2.7089 3.7782 3.2769 4.8506
-2.1511 0.4049 -0.5646 7.5429 -1.0755 0.9647 0.8271 1.0577 -1.6664 2.5417 0.6144 -1.5341 1.6414 2.1702 2.6943 4.2722 2.2931 2.9831 4.6841 0.9021 0.7335 4.6409 2.4760 2.0007 2.8952 2.2753 3.1322 1.2195 1.1643 4.5777
-2.3251 -0.0101 -2.5592 2.2075 -1.0670 -0.0868 -1.4557 1.7158 -1.0255 2.3226 0.2648 2.7935 2.0876 2.1461 2.6126 6.0847 4.0914 5.3947 4.7526 5.6731 1.4525 5.2458 2.4724 3.0958 4.3968 3.5856 3.4435 -0.9466 -0.5905 2.7651
-1.4659 -0.3782 -1.4287 -2.2154 -0.7383 -0.0207 2.0686 1.5472 -0.3434 1.8241 1.6032 4.6002 1.7994 1.4375 2.7427 4.6797 4.2916 6.2378 4.5084 8.3185 0.6733 4.3573 1.5799 3.4364 4.7319 3.0253 2.2581 -0.6828 0.0079 2.1734
-0.1990 -0.2089 1.5458 -2.2489 -0.3924 -0.1105 5.8902 0.8670 -0.2834 1.2157 1.9606 1.5407 1.5739 0.7144 2.1971 3.1226 2.6125 4.1239 3.7089 6.1617 -1.1889 2.5556 0.1418 2.7257 3.8404 1.3848 0.4209 0.3717 1.2295 3.5294
-0.2996 0.3385 -0.4274 0.1929 -0.4019 -1.2850 3.4478 0.5487 -0.1639 0.9117 -0.1981 -3.0630 2.2682 0.7248 1.3054 3.6915 1.3077 2.0072 2.8471 2.8864 -2.3672 0.9199 -0.1482 2.1310 3.3546 0.6371 -0.2684 0.7442 1.6894 5.5010
-1.0024 0.6248 -4.1374 2.3372 -0.5538 -1.5127 1.2800 0.7468 0.4733 0.9618 -1.0103 -5.0013 2.8977 1.0114 1.1769 3.8307 0.8159 1.4945 2.4001 0.9988 -2.9379 -0.8984 -0.1089 1.6229 3.3879 0.3385 -0.5731 0.0267 1.4525 6.4240
-0.1480 0.6728 -2.5817 1.3798 -0.4110 0.0458 4.4207 1.7392 0.8587 1.0639 0.8083 -2.4159 2.4701 0.7028 1.6464 2.8279 0.2014 0.8083 1.6628 0.5736 -3.7496 -2.9646 -1.6164 0.6049 2.9275 -0.8622 -2.2536 -1.8158 0.3272 5.4208
0.9813 0.8592 -1.4534 -0.8380 0.0182 0.6113 4.7541 2.4842 0.3875 0.8554 0.7864 4.6565 1.3397 -0.1345 1.1327 3.3173 -0.6060 -0.5346 0.1185 1.2271 -4.0473 -4.1573 -4.1809 -0.5737 2.1886 -1.7585 -4.1071 -3.0452 -0.8986 3.8959
1.3739 1.0780 -3.1833 1.6066 0.4404 -1.0627 -0.1520 2.3805 0.0777 -0.0479 -2.0452 9.8280 0.7572 -0.9151 -0.9466 3.8375 -1.5175 -1.1781 -1.8552 1.0590 -3.8112 -4.4164 -6.2251 -2.0164 0.9076 -1.1570 -4.3302 -2.8279 -1.6117 2.7927
3.4968 1.0922 2.2198 7.1373 0.6853 -2.5764 -2.5986 3.8085 0.8771 -1.5125 -4.1286 6.7132 1.6799 -1.3628 -3.2953 0.6530 -1.9926 -0.9770 -4.2042 -2.3486 -4.1507 -4.6316 -7.3184 -4.2294 -1.8258 -0.1960 -3.8215 -3.8235 -3.2750 1.1054
6.3508 0.9909 10.9039 9.1677 0.7268 -2.7766 -3.8819 6.7871 1.7626 -2.6296 -5.2390 1.4908 3.2171 -1.4206 -4.7172 -3.1883 -1.1209 -0.8536 -6.4673 -7.4061 -4.5200 -4.3505 -7.7586 -6.1766 -4.5041 0.1000 -3.6362 -6.6687 -5.9427 -0.7163
5.9467 1.1483 8.1349 8.5110 0.7080 -2.4087 -8.1284 7.4156 1.7029 -2.8156 -6.3976 1.9655 3.7107 -1.3480 -5.1367 -2.9353 0.1224 -1.2734 -7.4740 -8.8582 -4.5450 -3.1695 -8.1973 -6.9244 -5.3787 -0.6319 -3.3986 -7.1885 -6.8016 -1.6074
4.7764 1.8434 2.4233 7.3602 0.8369 -1.1029 -8.0250 5.8286 1.3304 -2.4612 -5.6478 2.6616 3.4925 -1.6339 -4.6487 -1.7485 0.0755 -1.7681 -7.2921 -5.1496 -5.5045 -2.3181 -9.1052 -7.3166 -5.5476 -2.6868 -3.2248 -4.1004 -5.1993 -2.5749
6.9745 2.3701 9.5049 3.4861 1.0394 0.5718 -1.0894 5.7602 1.1085 -2.1239 -3.3797 -0.9272 3.5124 -2.1220 -3.6106 -3.5816 -0.7710 -1.7794 -6.6324 -1.5343 -6.6136 -2.0599 -9.7443 -7.5762 -5.8608 -4.3367 -3.4362 -2.1049 -4.0713 -3.7423
7.9243 1.4314 14.9638 0.2396 1.0743 0.2604 2.6019 6.0225 0.5381 -1.9509 -3.0900 -0.4197 2.6823 -2.1520 -2.9734 -5.3192 -1.1117 -1.7787 -5.3375 -3.1030 -5.5379 -1.1937 -9.4950 -6.8539 -5.3447 -2.9477 -3.2616 -3.8764 -4.8344 -3.0088
3.3241 -0.4277 2.3484 3.5795 0.9472 -1.5145 0.2780 3.3977 -0.3275 -1.7720 -4.3790 6.5754 0.4539 -1.7236 -2.7314 -4.0216 -0.7954 -1.9276 -3.8744 -7.5191 -3.5403 -0.1761 -9.0254 -5.6281 -4.1320 -0.1421 -2.2897 -6.6986 -5.9864 -0.8441
-0.6680 -0.8272 -10.2722 8.9421 0.8134 -1.5081 -1.1906 0.4516 -0.8295 -1.2566 -3.9542 7.6212 -1.0468 -1.3863 -1.8692 -1.8394 -0.5749 -1.3206 -3.3601 -7.7699 -4.0407 -0.6841 -8.6056 -4.9898 -3.8107 -0.7241 -1.8056 -8.0601 -6.9231 -1.5740
0.5637 0.4537 -6.6532 7.5755 0.7099 0.6712 -0.3845 0.2196 -0.8637 -0.3648 -1.9649 -0.8417 -0.8768 -1.2986 -0.5111 -1.1790 -1.2940 -0.2134 -3.2815 -2.1565 -6.4758 -2.1673 -7.9325 -4.5206 -4.6830 -4.2649 -2.5483 -7.7640 -7.7547 -6.1092
1.5434 0.8999 -2.4892 1.0416 0.6276 2.3822 0.3034 -0.2342 -0.7360 0.4181 -0.7657 -5.7306 -0.8618 -1.2787 0.5193 -2.0901 -2.4649 0.2820 -2.4334 3.1763 -6.8173 -2.0531 -7.2397 -3.2016 -4.8328 -4.8435 -2.4616 -5.6326 -6.7513 -8.6448
-0.5708 -0.1343 -6.7210 -1.8432 0.5493 2.3505 1.2575 -2.6429 -0.5348 0.6896 -0.7047 -3.3052 -1.4761 -1.1900 1.3232 -3.0129 -2.6593 0.5052 -1.1600 3.6087 -4.3480 0.2262 -6.1251 -1.2647 -3.1914 -1.7953 -0.2327 -3.1421 -4.1160 -6.4285
-1.2150 -0.9215 -5.7482 1.1466 0.4076 1.7089 1.9496 -3.3636 -0.4657 0.6397 -0.7105 -4.5218 -1.3993 -0.9070 1.8883 -2.7044 -2.2357 1.0012 -0.2526 1.0259 -3.3109 1.8662 -4.0806 0.0050 -2.2893 -1.1986 0.8915 -3.6966 -3.8909 -5.0267
-0.1233 -1.1774 -0.1046 5.0454 0.2655 1.7144 0.5935 -1.8184 -0.9604 0.6399 -0.5286 -9.4841 -1.2441 -0.5475 1.5559 -2.4418 -2.8468 0.8567 0.3909 -1.6413 -5.8171 0.9908 -2.7524 -0.1170 -4.3249 -4.5992 -1.6888 -6.1719 -6.1955 -7.2896
-0.9507 -1.4858 -1.7404 7.7982 0.2659 2.1170 -2.0595 -2.0730 -1.7797 0.7674 -0.7601 -9.0302 -2.3063 -0.4606 0.6516 -3.1614 -4.5666 -0.5970 0.8521 -3.3189 -8.3911 -0.5728 -3.4401 -0.8797 -6.7772 -7.2885 -4.7446 -5.5033 -6.1643 -8.5179
-1.9111 -1.2172 -3.5746 8.0163 0.2371 2.0725 -3.0371 -4.1141 -2.0425 1.1381 -1.1086 -7.8920 -3.1124 -0.4364 0.5739 -3.2878 -6.0091 -1.8017 1.2143 -2.9829 -8.6302 -0.8468 -4.0808 -0.9292 -6.4822 -7.5654 -4.8623 -2.2095 -3.4993 -6.6151
-1.0065 -0.6781 0.7354 1.9743 -0.0611 1.9161 -0.3297 -4.5862 -1.6339 1.9210 -0.3455 -12.7684 -2.3344 0.0482 1.7284 -2.8413 -6.0691 -0.5194 2.2750 -1.0523 -8.1416 -0.2996 -2.9402 0.1263 -4.1131 -7.0947 -3.3595 -1.6002 -2.3745 -4.5103
-1.5841 -1.3866 -1.3186 -5.6838 -0.2980 2.0578 2.7510 -4.3301 -1.2667 2.3967 0.7667 -14.1628 -2.0706 0.5280 2.6191 -3.5728 -5.0742 2.1581 3.8845 -0.7180 -7.4220 0.0553 -1.7647 1.1721 -2.1008 -5.8040 -2.2839 -4.1277 -3.2946 -3.4012
-3.6767 -2.7823 -9.2582 -6.1170 -0.0483 1.2784 -0.0005 -5.3310 -1.0758 1.3286 -0.4131 -7.5867 -3.6153 0.1858 1.6093 -5.0223 -4.6203 2.7495 4.1068 -3.6471 -6.1439 -0.2263 -2.0126 0.7546 -2.2697 -4.3902 -1.8727 -5.3372 -3.7654 -2.9873
-3.2132 -3.0674 -8.6955 -1.7317 0.3696 -0.7235 -6.6549 -5.3704 -0.6250 -0.8518 -3.6667 -4.4732 -4.5857 -0.4965 -0.8390 -6.1658 -5.0888 1.2830 2.3110 -6.7161 -6.1068 -1.4993 -2.6462 -1.0218 -4.6600 -5.1606 -2.3508 -3.6834 -3.2679 -3.8234
-1.6044 -2.5179 -5.4258 1.6270 0.4616 -1.7040 -8.3931 -3.4141 0.0122 -2.0037 -5.4122 -7.5660 -3.8061 -0.6461 -2.4773 -7.5298 -5.1783 0.5002 0.5741 -5.9407 -7.3728 -3.5619 -3.2244 -2.4788 -6.5289 -6.8855 -3.7050 -2.1851 -2.9259 -5.3983
-2.0582 -2.3754 -8.8423 5.0801 0.3691 -1.0448 -4.8603 -2.6127 0.3959 -1.3983 -4.4515 -7.4240 -3.2661 -0.5369 -2.1535 -8.7809 -4.8224 0.2035 0.2107 -1.3572 -7.4729 -5.0984 -4.4284 -2.6793 -5.5468 -6.6261 -4.9399 -3.3363 -3.6636 -6.7939
-1.7748 -2.2124 -6.8767 8.6665 0.3530 -0.9464 -3.4906 -3.2561 0.5976 -0.6149 -3.0988 -4.2924 -3.2191 -0.6097 -1.2705 -8.3107 -4.9927 -0.8405 0.0150 3.4530 -6.5965 -5.0320 -5.9061 -2.5291 -3.4683 -5.5780 -5.4317 -5.6684 -5.3350 -8.2043
1.4685 -0.9778 5.2623 9.2499 0.2657 -1.5997 -4.5082 -1.6880 1.1914 -0.6181 -2.0469 -5.8015 -1.6100 -0.5069 -1.2281 -6.2621 -5.2106 -1.0080 -0.8600 4.6198 -6.3720 -4.4225 -6.8054 -2.9917 -3.2969 -5.9141 -5.4272 -5.6532 -5.9114 -8.6528
4.0895 0.5364 11.7266 6.8541 0.0692 -1.3273 -3.6265 2.2533 2.3032 -0.8517 -0.8449 -8.4916 0.9658 -0.1328 -1.4976 -5.0041 -4.4466 0.7599 -1.5578 1.9091 -5.6189 -4.8041 -7.0088 -3.7469 -4.8321 -5.8224 -5.1008 -2.8173 -4.1929 -6.9674
3.4105 0.6883 5.3803 4.2885 0.0761 -0.6683 -2.6874 4.8867 3.0600 -1.0602 -1.2319 -3.0887 1.7022 -0.0817 -1.5940 -5.2419 -3.0489 2.3329 -1.7646 0.2406 -3.4641 -5.3628 -7.0537 -4.3595 -5.8457 -3.6763 -4.7546 -1.1522 -3.0206 -5.7162
1.5594 -0.0923 -3.5215 3.2570 0.3515 -0.5631 -3.0006 4.7925 2.6027 -1.0846 -2.7945 6.6103 0.5875 -0.5210 -1.8427 -4.7173 -2.3569 1.9457 -2.2397 1.6077 -2.5465 -5.0195 -7.7663 -5.1700 -5.6113 -2.2386 -5.5879 -3.9466 -5.3458 -6.9782
1.5662 -0.1452 -4.4097 2.6485 0.5935 -0.2737 -1.5721 3.6947 1.4015 -0.5146 -2.2252 8.4936 -0.0630 -0.9828 -2.0588 -3.2643 -2.9715 0.4909 -3.0906 -0.9153 -4.5753 -4.9281 -9.0345 -6.3761 -5.3632 -3.7513 -8.1087 -9.0223 -8.8170 -6.8912
3.7542 0.5921 3.4993 1.8843 0.6893 -0.0209 -0.3061 3.3715 0.6580 -0.1557 -0.8048 2.7931 0.2103 -1.2428 -2.2908 -3.8502 -3.8819 -0.5966 -4.0681 -9.5456 -6.7375 -5.9130 -9.4972 -7.6002 -6.4776 -5.6487 -10.0588 -10.7320 -9.1358 -3.4747
5.7886 1.2796 11.3017 3.1936 0.7343 -0.6567 -2.0975 4.1974 0.7573 -0.8709 -1.7925 -0.2722 0.2729 -1.3413 -2.9349 -5.9146 -4.1611 -1.3469 -5.3526 -13.0432 -6.0228 -6.6797 -8.6763 -8.4612 -8.4509 -5.0624 -8.8919 -7.2057 -6.8044 -2.4491
5.4216 1.6743 10.1437 6.7766 0.6397 -1.6415 -3.3068 5.2554 1.1831 -1.5417 -2.9708 0.8129 0.3431 -1.0829 -3.1953 -5.7105 -3.9027 -2.1993 -6.1407 -6.7000 -3.5074 -5.7917 -7.4270 -8.5780 -8.8932 -2.7921 -5.7460 -3.2304 -5.4677 -5.6276
2.9340 1.3326 1.5364 10.2230 0.3479 -2.6930 -3.3268 5.6302 1.4238 -1.2617 -2.3190 0.7257 1.4240 -0.4545 -2.5985 -3.9082 -2.6517 -2.2995 -5.0991 -2.3763 -1.4114 -3.2380 -6.1239 -7.7590 -7.0624 -0.3749 -3.6944 -3.4984 -6.1504 -6.5520
0.7556 0.2415 -5.3653 12.4373 0.1862 -3.9317 -6.2176 5.2506 1.4011 -1.1341 -2.6079 0.7732 2.6577 -0.1151 -2.5775 -3.6280 -0.5103 -0.9959 -3.3593 -5.3173 0.4210 -0.5114 -5.0224 -6.9123 -5.4732 2.0273 -3.3791 -6.1198 -7.3792 -4.1954
0.8030 -0.2106 -3.3636 11.9817 0.3459 -4.3572 -9.2947 4.0842 1.4663 -1.8163 -4.2272 4.5735 2.4185 -0.4232 -3.6267 -4.3524 0.5855 0.4904 -3.3182 -6.9340 2.7892 0.7915 -4.8747 -7.2202 -6.0271 4.0472 -3.2518 -5.6631 -7.2799 -3.6664
2.2412 0.3906 5.2724 7.8043 0.4275 -3.5308 -7.9622 2.5988 1.9527 -2.3865 -4.2451 8.0826 1.6189 -0.6152 -4.0887 -5.1246 0.4667 1.4445 -4.5441 -6.6469 4.9313 0.7836 -5.3663 -8.2309 -7.8137 4.8338 -2.6025 -1.3422 -4.8610 -3.9532
3.2408 0.7437 11.3803 4.1601 0.1962 -2.5368 -5.4170 2.5178 2.5922 -2.4683 -3.4787 5.3394 2.4174 -0.2067 -3.6465 -6.6871 1.1309 2.7791 -5.0866 -10.2015 5.4904 0.5997 -5.5267 -8.7707 -9.4665 4.0799 -2.1397 1.2686 -2.8428 -2.6818
3.6365 0.2974 11.4283 6.0486 0.0171 -2.2749 -5.2185 4.2623 2.8691 -2.5942 -4.4732 -1.3512 4.3633 0.1356 -3.7272 -8.1180 2.2282 4.1939 -4.8915 -11.8233 4.5918 1.2496 -5.3155 -8.6733 -10.1238 2.8120 -2.2512 -1.4051 -4.9213 -3.9388
3.4157 -0.5551 9.4962 9.4902 0.0234 -2.9349 -6.4549 5.3893 2.7180 -2.6257 -5.5455 -4.1008 5.2231 0.1354 -4.0842 -8.2962 2.1952 4.3461 -4.3093 -6.8344 3.8931 3.4438 -4.5628 -7.8316 -9.0412 3.0512 -2.2431 -4.7285 -8.0201 -7.4128
2.3364 -1.0891 8.1987 6.6993 -0.0322 -3.8904 -8.8762 4.2218 2.4550 -2.1732 -4.7553 -1.5180 4.5814 0.2159 -3.6824 -7.6525 1.8361 3.9884 -2.9551 -3.9054 3.8304 6.0105 -2.7864 -6.0089 -7.0415 4.5751 -1.5435 -2.2268 -5.6410 -5.6903
1.6791 -0.4105 7.1139 0.4952 -0.1133 -3.9524 -10.6949 2.3390 2.3257 -1.6320 -4.1074 -1.0901 3.7741 0.2880 -3.2959 -6.2507 1.9110 4.8510 -1.5106 -5.9291 3.0791 6.2623 -0.7838 -4.1868 -6.1486 4.3068 -0.3756 4.3408 0.4626 -0.1931
1.2041 0.3035 3.9328 -1.1927 -0.1636 -3.6192 -8.5373 1.0935 2.1077 -1.2437 -4.9331 -4.6264 2.9517 0.3332 -3.3949 -5.0644 1.4984 6.1719 -0.6597 -4.2838 1.8880 4.2181 0.5003 -3.1514 -6.2602 1.8207 0.7798 7.3818 2.7853 -0.1662
-1.5856 -1.1306 -3.9483 -0.5151 -0.3683 -4.5641 -5.2948 -0.5520 1.4137 -0.6526 -5.3891 -4.4173 1.2043 0.7932 -2.8206 -5.5662 0.8238 5.9348 0.3015 1.7175 1.6850 2.9364 1.5751 -2.0095 -5.3830 0.3424 0.9003 4.8170 0.6004 -4.8663
-5.0904 -3.2127 -11.5539 -1.3736 -0.5891 -5.8694 -5.0335 -2.4304 0.6201 0.1332 -4.0130 -0.9021 -0.4802 1.2838 -1.2791 -6.1977 0.9692 4.5454 1.5538 3.8295 1.8669 3.6356 2.9767 -0.3063 -3.5540 0.8786 -0.6427 1.8142 -0.7893 -5.8557
-5.3224 -3.1040 -11.2594 -0.1133 -0.5610 -5.2575 -5.0686 -2.6084 0.3472 0.7399 -1.7354 -1.9427 -0.4336 1.1653 0.2538 -5.5778 1.2439 3.7489 2.5945 1.1875 2.1049 4.7969 4.1768 1.0863 -2.5361 2.0869 -1.6572 2.6664 0.8728 -2.4235
-4.1998 -2.1506 -8.0299 2.3756 -0.4725 -3.2789 -3.6293 -1.8628 0.2014 1.0135 -0.4073 -3.8169 -0.0380 0.9328 1.2217 -5.5374 0.4855 3.4149 3.4145 0.4726 3.8446 5.5413 4.2797 1.7576 -2.5327 3.8640 -0.0982 6.0581 3.3926 -0.6409
-5.1199 -2.5108 -9.7019 0.8439 -0.4856 -1.7414 -2.6804 -2.4849 -0.2954 1.0631 -0.0877 -0.5999 -1.2246 1.0151 1.5859 -6.0062 -0.7983 2.7228 3.5463 3.2124 5.8710 5.6624 2.7399 1.8279 -2.8110 5.0483 1.3082 6.6307 3.1284 -3.1559
-5.5133 -2.8649 -10.6321 -1.8207 -0.4416 -1.0141 -2.3349 -3.3189 -0.6039 1.0429 0.4492 -0.0416 -2.3157 0.9715 1.3532 -4.7914 -1.5120 2.0537 2.6369 4.4196 5.7230 4.4256 0.3275 1.3493 -3.2124 3.6130 -0.1425 1.5319 -1.2407 -7.2617
-3.3995 -2.2210 -5.9526 -1.8924 -0.3617 -1.2144 -2.6972 -2.2378 -0.4661 0.8084 0.5138 -6.4005 -1.3926 0.7900 0.7464 -3.2811 -1.5351 1.8080 1.8176 3.1278 4.9191 2.4091 -1.1879 0.7500 -3.4317 1.5754 -2.0163 -4.2169 -5.7698 -9.5248
-1.4563 -1.5145 -1.4299 -3.2713 -0.3460 -1.7942 -3.3577 -0.4268 -0.5294 0.3698 -0.5373 -10.8636 -0.0833 0.7713 0.4950 -3.2802 -1.5800 1.9773 1.7584 4.3282 4.9045 1.3194 -1.3726 0.3843 -3.1635 1.6786 -2.3445 -4.0723 -5.8771 -9.0483
-0.1380 -0.2991 1.9939 -7.0020 -0.2453 -1.2577 -1.8499 0.3548 -0.9543 0.4565 -0.6673 -9.7698 -0.1810 0.5691 1.2939 -2.2086 -2.0326 2.3601 1.7505 9.2389 3.8443 0.9832 -1.3227 0.2653 -2.0761 2.1120 -2.7909 0.5065 -2.5449 -6.5419
1.9390 1.7329 6.8187 -6.9517 0.0023 -0.2731 0.4698 0.3748 -1.1499 1.1579 0.7299 -7.6998 -0.8587 -0.0199 2.3855 1.0048 -2.3960 1.9318 1.6415 12.2789 1.7973 -0.1375 -1.7373 0.4553 0.1643 1.2159 -3.7027 3.1620 0.1535 -2.8443
2.9506 2.4752 7.2280 -1.6584 0.2853 -0.5763 0.8819 0.3352 -0.8184 1.1430 1.4066 -5.5119 -1.2580 -0.6307 2.0602 2.6239 -2.5445 0.0198 1.4120 8.3570 0.1102 -2.3166 -3.0325 0.3273 1.9336 0.4700 -4.4975 1.2523 0.2979 1.0192
1.8922 1.3221 0.9619 2.2903 0.5915 -1.1902 0.9414 0.6718 -0.2315 -0.0863 0.6054 -2.2179 -1.7991 -1.1514 0.3694 1.0831 -3.1728 -2.3241 0.1093 -0.3043 -2.3573 -4.7588 -5.4071 -1.0394 1.3423 0.0536 -6.6376 -2.4063 -0.8676 4.3520
1.1626 0.7036 -3.5662 1.2405 0.8130 -0.8324 1.1219 1.2907 0.1554 -1.0217 -0.2535 -0.2527 -2.2628 -1.5272 -0.5893 -0.4958 -4.0454 -3.3707 -1.8892 -5.4461 -5.2809 -6.6009 -7.1810 -2.7695 0.0220 -1.1084 -9.6194 -3.4438 -0.8747 6.6963
1.7512 1.3743 -1.5000 -2.4199 0.7143 -0.5208 0.4781 1.5363 0.2148 -0.7006 -0.0688 -2.0771 -1.7431 -1.3729 0.1954 -0.1447 -4.2428 -2.4031 -2.2945 -3.7317 -6.3746 -6.7675 -6.4306 -3.0741 -0.1427 -2.0881 -10.2333 -1.5052 0.3263 7.0829
2.2711 1.3283 3.1229 -5.6017 0.4285 -0.9842 1.0172 1.5824 0.2502 -0.2143 0.6915 -5.5082 -0.6895 -0.8287 1.1727 0.5994 -4.0047 -0.8200 -0.7103 -0.5317 -6.1000 -4.8427 -4.4822 -2.2532 -0.2795 -1.6386 -8.6779 -0.9038 -0.1211 5.2034
1.3377 0.0035 2.6807 -4.0265 0.3657 -1.8227 2.8743 1.3362 0.2848 -0.3532 0.5912 -3.4173 -0.8401 -0.6479 0.8510 0.3013 -3.5833 -0.7008 0.3383 1.2194 -4.8433 -2.2735 -3.7502 -2.0925 -0.5296 -0.2200 -7.8757 -3.1673 -2.6064 2.3820
-1.2264 -0.8183 -6.3856 3.6063 0.5695 -2.7737 2.4926 -0.0598 0.0767 -0.4499 -0.3183 5.9770 -2.3983 -0.9960 -0.0805 -0.2865 -2.3344 -1.3639 -0.6007 2.3763 -1.0354 -0.9796 -3.6562 -3.0307 -0.1658 1.1644 -7.6792 -4.1068 -3.6793 0.3422
-2.5252 -0.0386 -13.0451 8.6302 0.7005 -3.1383 -1.3226 -0.9091 -0.0240 -0.4583 -0.9693 10.7991 -2.8611 -1.2561 -0.5754 -0.3403 -0.8861 -0.5142 -2.3008 0.3988 3.4281 -0.9665 -2.7426 -4.0696 -1.0617 2.1267 -6.1839 -1.2690 -2.0165 0.0077
0.0152 1.4233 -4.9975 4.8508 0.5398 -2.4042 -4.9224 0.8330 0.3471 -0.8962 -1.8243 2.8102 -0.7945 -0.9994 -0.7518 -0.6489 -0.7293 1.2900 -3.4240 -3.2997 5.3855 -0.6598 -1.7532 -4.3410 -3.1631 3.0850 -3.7100 2.2819 -0.1402 0.7104
3.0184 1.9077 7.3593 0.0860 0.2428 -1.6565 -3.7522 2.6960 0.6478 -1.1272 -2.7224 -6.2271 1.3268 -0.4919 -0.6970 -1.6278 -1.1497 1.8895 -3.6253 -1.9322 6.2906 0.8311 -1.2925 -3.6344 -3.0174 4.2206 -1.7038 3.1049 0.0178 0.3523
2.7737 1.0055 8.9136 0.5053 0.1069 -1.8871 0.3182 2.4347 0.6277 -0.8012 -2.0384 -4.7085 1.3872 -0.2474 -0.4601 -2.0790 -0.2194 1.7845 -2.6229 2.3914 7.3003 2.7553 -0.3463 -2.2169 -0.8895 4.7632 -0.7714 1.9753 -0.4764 -0.8909
1.4248 0.0180 5.1949 1.1397 0.0928 -2.4024 0.6728 2.1642 1.0464 -0.8025 -0.7384 0.0212 1.0411 -0.2161 -0.7019 -1.4782 1.7189 2.5878 -0.5962 3.0197 5.9788 3.8124 1.1821 -0.4866 0.2373 4.5547 -0.7794 2.5900 0.9026 0.3633
0.6470 -0.2565 3.6792 0.4954 -0.0883 -2.4348 -1.9292 2.4773 1.7536 -1.0804 -0.9917 -0.1421 1.5890 0.1012 -1.3047 -0.5238 2.7412 3.6532 1.2867 2.4975 2.7836 3.9644 2.4524 1.1620 0.5308 4.3379 -0.7588 5.9444 4.2015 3.7963
-1.3377 -0.6786 0.1900 2.1100 -0.4006 -2.3171 -1.3147 0.9915 1.4644 -0.7637 -1.7816 -0.5624 1.6364 0.7006 -1.2623 0.3272 2.7490 3.9431 2.4592 4.1988 1.6161 4.5683 3.8353 2.3896 0.7361 4.2175 0.5688 8.7735 6.3464 4.5625
-3.4668 -1.5085 -3.7140 3.3263 -0.5660 -2.3513 0.9048 -1.3583 0.5134 -0.1593 -1.4559 1.0115 0.7727 1.0729 -0.5516 0.3249 3.1123 4.1536 3.5373 5.3721 3.0655 5.8298 5.4906 3.1812 0.3767 4.0407 2.6272 9.0372 6.0877 2.1011
-3.1770 -1.6417 -3.1855 1.8627 -0.4702 -2.1816 -0.5849 -1.7618 0.3490 0.0874 -0.8186 0.5924 0.0550 0.8816 0.0035 -0.7151 3.5194 4.5108 4.2543 5.5461 4.2913 5.8052 5.7504 3.4235 0.3358 3.6985 2.8218 7.5680 4.8675 0.1978
-2.6546 -1.1290 -5.1157 1.5260 -0.1722 -1.5861 -4.1068 -1.8703 0.4069 0.1988 -1.0421 0.0046 -0.8842 0.2388 0.0219 -1.0461 2.6400 4.1937 3.6909 5.0978 3.8500 3.6167 4.0110 2.8295 0.9576 2.2211 0.1047 5.2364 3.5604 0.2078
-4.4355 -1.1739 -12.8221 1.4875 0.0166 -0.8980 -5.7205 -3.9484 -0.3451 0.4415 -1.7925 1.0794 -2.4208 -0.1321 -0.2328 -0.2243 1.0757 3.8751 2.8478 2.1608 2.4190 1.1595 2.6809 2.2015 0.9080 -0.5170 -2.9988 3.6878 3.0996 1.3359
-5.7739 -1.5684 -14.7999 -2.6151 -0.2396 -0.6264 -5.0576 -5.4176 -0.6752 0.8689 -1.6466 -1.1063 -3.0489 0.3830 0.0504 0.0002 0.3340 4.7510 3.4293 1.1700 1.3823 0.3253 3.6398 2.8642 0.4551 -1.9454 -3.4193 4.2284 3.7589 1.5436
-4.4874 -1.6051 -7.2098 -6.4145 -0.6653 -1.1334 -2.9791 -4.3371 0.3516 1.4237 -0.4723 -5.4939 -2.0873 1.1569 1.1228 -0.5014 0.4539 5.6167 4.7390 6.6014 2.0675 1.1409 5.1700 4.2199 0.6612 -0.1852 -1.4479 4.1755 2.8940 -1.5576
-3.2259 -2.0365 -2.2091 -2.6837 -0.7458 -2.4512 -1.9701 -2.7385 1.3869 1.4358 -0.9656 -4.9874 -0.8017 1.2744 1.6484 -1.4454 0.9096 4.6335 4.7957 9.6258 3.7655 2.6295 4.8191 4.3871 0.8504 2.2170 -0.2712 1.6132 0.2044 -4.5319
-3.8855 -3.0111 -6.3531 4.4701 -0.6032 -3.8749 -4.5842 -1.5349 1.4944 0.7014 -3.7634 -1.1252 0.1191 1.0467 0.9974 -3.8670 1.8221 2.8104 3.4087 3.9278 4.0630 3.5230 3.3355 3.3168 0.9739 1.9544 -1.4569 0.5995 0.4461 -1.6170
-4.7847 -2.8883 -12.2875 5.0982 -0.6057 -3.9086 -6.5291 -0.4349 1.2639 0.3772 -4.2084 0.1498 0.7762 1.0914 0.7624 -5.4175 2.8444 2.4181 2.0446 0.0609 2.7489 2.9537 2.9143 2.6025 2.1722 0.2272 -2.9918 3.4372 4.2801 3.8491
-4.2880 -1.3029 -11.4789 -0.8370 -0.6025 -1.7428 -1.2163 -0.8377 0.9459 0.8156 -0.1860 -0.4512 0.6453 1.0672 1.4730 -2.3167 2.6454 2.7626 1.4150 3.8095 1.5593 1.5461 3.1383 2.4678 3.4175 -0.1040 -3.0745 5.3476 5.8816 4.9654
-2.4082 0.0306 -3.6401 -4.9733 -0.3516 1.0846 7.1385 -2.3930 0.4414 0.9249 3.4209 -0.8837 -0.1899 0.5753 1.5421 2.1860 1.0680 1.5796 0.9548 5.9634 0.6571 0.8734 2.2068 1.7455 3.0467 0.3723 -2.7318 2.9321 3.1261 2.9430
0.2953 0.7007 4.9231 -5.0189 -0.0998 2.1793 8.0125 -1.8834 0.2683 0.7493 3.4681 -3.0025 -0.3888 0.0928 0.9391 2.7936 -0.1069 -0.0826 0.2840 3.9908 -0.6881 0.8962 0.6576 0.3894 2.2897 -0.5430 -3.4878 -0.7663 -0.1245 1.7059
2.6000 1.8243 8.9734 -5.1683 -0.1164 1.3300 1.8244 0.7421 0.5951 1.1377 2.6734 -6.4534 0.0164 0.1004 1.1723 1.9407 -0.3063 0.0859 -0.4467 3.6800 -2.2503 -0.3014 0.1700 -0.4090 2.6138 -2.7607 -5.1056 -1.5802 -0.5735 1.9701
2.5469 2.6361 8.1049 -4.5066 -0.2870 0.1164 -1.4539 1.3790 0.7278 1.4990 2.6241 -7.1105 -0.5228 0.4269 2.0036 3.1421 -0.8921 0.7209 -0.8712 2.8408 -3.3117 -2.5030 0.4666 0.0935 3.2108 -4.3519 -5.9551 1.0733 2.1325 4.5783
-0.0804 1.5533 4.1134 0.2639 -0.4626 -0.5086 1.3556 -1.0310 0.5038 1.1388 2.2257 -4.6997 -1.6095 0.8292 2.3021 3.7593 -1.8902 -0.1139 -0.3595 -0.3591 -3.3240 -2.7930 0.4609 1.3957 3.2864 -4.0300 -4.9539 3.9284 5.1633 7.6049
-2.3416 -0.0411 -0.4866 5.1798 -0.4988 -0.2496 5.3404 -2.6671 0.5673 0.7361 2.3356 -2.7452 -1.6336 0.9801 2.3391 2.6564 -2.2028 -0.8400 0.6433 0.7909 -2.6878 -1.0049 0.2927 2.0740 2.8322 -2.1267 -3.0954 3.2490 4.2533 5.5824
-2.0604 0.2337 -3.5833 6.1421 -0.1586 1.1440 7.4607 -1.7886 0.9979 0.8076 4.1151 -0.6417 -1.3596 0.3345 2.7045 3.1007 -2.0728 0.0029 0.3860 5.9002 -2.1202 -0.0862 0.1708 1.4739 1.8076 0.3709 -2.0252 0.3209 0.4456 0.1650
-1.1264 1.7056 -5.9145 5.0932 0.3173 2.6484 6.5292 -0.9640 1.2659 0.9756 5.4837 2.8478 -1.9050 -0.6694 2.9383 4.8298 -1.8286 0.9398 -0.9999 6.3591 -1.2816 -0.3061 -0.3606 0.5894 0.8539 2.4796 -1.8989 0.4870 -0.1674 -0.5274
-1.7288 2.2215 -9.1222 2.9033 0.3472 2.3277 2.0619 -1.2774 1.3886 0.7871 4.4154 3.1783 -1.8148 -0.7993 2.3709 4.3986 -0.9134 0.7346 -1.4328 2.5576 -0.3988 0.1952 -1.0109 0.0359 0.4716 2.8595 -2.0599 4.2622 3.0557 3.3664
