Fp1 Fp2 F7 F3 Fz F4 F8 FC5 FC1 FC2 FC6 T7 C3 Cz C4 T8 CP5 CP1 CP2 CP6 P7 P3 Pz P4 P8 PO9 O1 Oz O2 PO10
-4.2349 3.2300 -2.2591 -0.7401 -1.6585 -2.8093 2.0851 -0.6683 -2.7368 0.5021 -0.9526 -4.8656 -3.0485 -2.1433 -0.1789 -0.7569 -1.5119 -2.0767 1.5958 0.7994 -2.3798 -3.3122 -0.5878 -1.4863 0.5923 1.0544 -1.0987 2.8113 2.2907 -2.1649
-3.1007 2.9462 -2.0003 -1.1055 -1.3179 -2.1120 2.7217 -1.1306 -2.5726 0.8293 1.1014 -5.5083 -2.8442 -2.3728 -0.6568 0.1254 -1.5178 -2.4662 0.9078 1.9971 -5.0346 -3.5297 1.3101 -1.6153 1.6720 -0.2893 1.0472 5.5693 5.1990 0.2171
-3.4822 2.0669 -2.0686 -2.3397 -1.0306 -0.5963 2.4438 -2.1196 -2.4773 0.5102 0.6750 -5.2913 -3.3324 -2.6512 -1.0504 -0.2365 -1.4648 -2.7869 0.2542 0.8416 -6.3351 -4.1957 -0.4502 -1.9443 1.7462 -1.5484 -0.2005 3.7614 3.1308 0.1884
-4.1667 1.9798 -1.8787 -3.3150 -0.9145 -0.4396 1.7774 -3.1474 -2.0445 -0.2832 -1.6357 -3.1238 -2.4637 -2.6639 -1.1122 -0.5233 -0.2672 -2.4717 -0.2754 -0.7490 -4.4398 -2.7013 -3.0472 -1.7865 0.9532 -0.6460 -1.6381 1.6126 0.6705 0.8472
-3.0037 3.0163 -1.1311 -2.8942 -1.1520 -0.9488 1.7155 -2.8336 -1.0972 -0.4661 -2.5175 -0.8522 -0.4065 -2.2161 -0.7078 0.9979 2.1503 -1.4328 -0.0941 -0.5145 -0.6294 0.8112 -2.2756 -1.4768 0.7965 2.5729 0.5169 3.8874 2.1981 2.3796
-1.7297 3.5708 -0.5721 -1.1587 -1.5327 -0.1376 1.9029 -1.2906 -0.4991 0.0163 -2.4648 -0.1064 0.4383 -1.6640 -0.2725 2.7266 3.3744 -0.1705 0.6930 0.1074 1.8443 3.1654 1.0641 -1.4098 1.4531 3.3958 3.2575 7.7033 5.1988 2.9680
-2.9636 2.8118 -1.1110 -0.9766 -1.7222 0.8423 1.5782 -1.1543 -1.0996 0.1677 -3.8130 -1.5360 -0.6428 -1.5945 -0.4469 2.4740 1.7411 -0.1216 0.4568 -0.6997 0.4951 1.6365 2.2113 -1.7816 1.3103 -1.5661 1.4705 7.2783 5.2018 2.8048
-5.1520 2.2666 -2.1765 -3.5820 -1.3265 0.6166 1.4077 -2.9265 -2.2500 0.2498 -5.1438 -3.9612 -1.8033 -1.6382 -0.5087 1.5120 0.0182 -1.5851 -0.4851 -1.2342 -2.8199 -2.0503 -0.1728 -2.0989 0.5686 -6.0807 -2.0429 4.1616 3.5200 3.3143
-5.7212 3.0329 -2.7020 -5.8531 -0.4538 0.9463 2.2989 -4.4072 -2.8719 1.1249 -3.8014 -4.6818 -1.8669 -1.0293 0.5600 1.5614 0.6205 -2.9449 0.5326 0.4719 -4.5143 -4.1258 -2.5570 -1.3066 1.1320 -4.2230 -1.7183 3.5119 3.7830 4.5341
-5.1948 3.5911 -2.8494 -5.8381 0.0099 2.2498 3.2849 -5.1332 -3.0030 1.7902 -1.2851 -3.8291 -1.7711 -0.4317 1.7536 1.8428 0.9860 -3.4151 3.0930 2.3237 -4.7149 -4.1189 -2.2938 0.1248 2.2112 -0.6554 0.6834 4.9248 5.2197 4.8742
-4.6417 2.5252 -2.9101 -5.1563 -0.1216 2.2440 3.0306 -5.8441 -2.9586 1.0137 -0.7891 -3.9523 -2.0604 -0.8917 1.6241 1.7505 -0.7239 -3.5240 3.7905 1.7018 -5.1388 -3.4526 -0.2240 0.6766 1.8253 0.1778 1.3669 5.8371 5.9489 3.9149
-3.3988 0.9372 -2.4595 -5.0587 -0.1373 1.4110 2.2375 -5.8433 -2.5007 -0.1699 -1.7737 -4.5286 -1.8971 -1.7143 0.7047 1.4421 -1.8814 -3.3056 2.3820 -0.1762 -5.2368 -2.3873 1.1866 0.3275 1.1025 0.9762 1.4611 6.6657 6.4238 3.6333
-1.6403 0.0807 -1.8800 -5.5059 -0.1590 1.9355 2.0277 -5.1575 -1.8876 -0.5318 -2.2395 -3.7328 -1.4444 -1.7890 0.2034 0.2660 -1.3185 -2.9134 1.5085 -1.5602 -4.5244 -1.6060 -0.0341 -0.1707 1.6056 1.8208 1.9785 7.1284 6.0514 4.8665
-1.6115 -0.1455 -2.1798 -6.5305 -0.7863 2.3818 1.8652 -5.2204 -1.9043 -0.5445 -2.9182 -3.1731 -1.7477 -1.3532 0.2700 -1.3552 -1.2196 -3.0339 1.5666 -2.6910 -4.1989 -1.9410 -2.7159 -0.5970 1.9845 -0.3326 1.4954 5.7587 3.9002 5.2252
-3.9957 0.6425 -2.9276 -7.4061 -1.5184 1.1577 1.4180 -5.5843 -2.3038 -0.3690 -3.7030 -4.3298 -2.1521 -0.8801 0.4533 -1.6318 -1.8996 -3.2061 1.3914 -2.9340 -4.7660 -2.1273 -2.7448 -0.4097 1.0580 -2.3511 1.0331 4.4911 2.4070 3.1051
-5.7701 2.4536 -3.0478 -7.3241 -1.5867 0.6075 1.6721 -5.1037 -2.2646 0.5315 -2.2818 -5.3983 -1.7729 -0.4065 0.4098 -0.5666 -1.9396 -2.4270 1.5255 -1.3641 -5.3209 -1.0845 1.2262 0.6789 0.3526 0.5162 2.7330 6.4391 4.1866 1.0993
-4.5533 2.9664 -3.0264 -7.4613 -1.3608 1.8293 2.4759 -5.4270 -2.0926 1.3223 -0.3543 -5.4890 -2.0412 -0.2331 0.0443 -0.0351 -2.0299 -1.3061 2.5438 0.1466 -5.0213 -0.4183 4.9348 1.4882 1.1144 4.6872 4.7851 9.7155 6.9474 1.8117
-2.5508 1.0711 -3.5212 -8.7756 -1.4709 2.3804 2.4441 -7.3639 -2.2925 0.9356 -1.8243 -5.7837 -3.4973 -0.4140 -0.6275 -1.0974 -2.8683 -0.9575 2.9306 -0.6378 -3.9810 -1.6195 4.2831 0.8136 1.7043 4.3006 4.2684 9.7912 6.1455 2.9550
-2.8412 -0.3936 -3.5051 -9.1792 -1.6456 1.6236 1.7024 -7.4587 -2.3088 0.1079 -4.5684 -5.9980 -3.5534 -0.4190 -1.2972 -2.8726 -2.5119 -0.9781 1.7291 -2.5465 -3.1705 -3.1956 1.2351 -0.7800 0.5748 1.1663 2.4162 7.3730 2.5653 1.7922
-4.4685 0.4662 -2.4482 -6.7054 -1.3927 1.2226 1.3369 -4.5671 -1.9254 -0.2137 -4.2845 -4.9425 -1.4046 -0.0845 -1.1183 -3.4483 -0.1356 -0.5756 0.6591 -2.8722 -3.0944 -2.7539 0.7136 -1.6318 -0.3612 -0.0614 2.0660 7.2870 2.3093 0.7043
-4.8274 1.6636 -1.5308 -3.3257 -0.7223 1.2190 1.3004 -3.1212 -1.5807 -0.0387 -2.6132 -3.0224 0.3272 0.4280 -0.0307 -2.0111 1.7219 0.0282 1.1491 -1.5299 -2.5892 -0.4015 3.2964 -1.0217 0.8318 0.5841 3.1271 9.8384 6.6630 2.1993
-4.1251 1.7911 -1.2255 -2.8512 0.1366 0.7484 1.1994 -4.7248 -0.9928 0.5865 -2.7288 -1.4028 0.6873 0.8759 0.5457 -0.1486 1.4858 0.1502 1.7427 -0.8182 -0.7028 1.5499 4.7533 -0.1534 1.8979 1.3587 3.6724 10.2693 8.7846 3.6130
-3.9466 1.7646 -1.0974 -5.9433 0.7188 0.1293 1.1790 -6.0716 -0.1805 1.1125 -3.4450 -0.7366 0.5803 0.4270 -0.0502 -0.0433 0.6008 -0.8840 0.7853 -1.4951 0.8950 1.5833 2.4232 -0.5286 0.4681 2.2268 2.3003 6.5036 4.6733 2.4671
-4.1981 1.6087 -1.3734 -8.7399 0.6488 0.0682 1.2211 -6.5607 -0.1806 0.6582 -3.5282 -1.1728 -0.3961 -1.0790 -0.7803 -1.3882 0.0338 -3.0999 -0.7506 -2.1865 0.3828 0.4855 -1.4114 -1.6868 -1.6210 2.7998 -0.6843 1.7912 -0.6992 0.8220
-3.9432 0.3137 -1.9068 -8.1941 0.4852 0.7125 1.1209 -7.9584 -0.8780 -0.1122 -4.1468 -2.3614 -1.9337 -2.1661 -0.9082 -1.6519 -0.9461 -5.2429 -1.4473 -2.5068 -1.0928 -0.1879 -2.9965 -2.2273 -2.4334 1.7019 -2.5506 0.0002 -1.9274 0.3514
-2.6175 -1.9443 -1.8828 -6.5888 0.9040 1.3919 0.9256 -9.3480 -1.1475 -0.0238 -4.7786 -3.8249 -2.2079 -2.0246 -0.7075 -0.0607 -2.3420 -6.2963 -1.7434 -3.1926 -1.9393 -0.1465 -1.7988 -2.2941 -2.7541 -1.1399 -1.5109 1.4671 0.2605 0.1304
-0.4369 -3.7676 -1.4790 -7.0025 1.4920 1.0956 0.8159 -9.3093 -1.0547 0.3742 -4.0828 -5.2431 -1.2496 -1.5244 -0.5716 0.9981 -3.1291 -6.6425 -2.1198 -4.2294 -2.5460 -0.2224 -0.9513 -2.7630 -2.8016 -3.3938 -0.2356 3.2110 2.4100 0.4553
0.7182 -3.9453 -1.3609 -8.6952 1.6059 0.0484 0.8503 -8.6817 -0.9565 0.1740 -3.2846 -6.2910 -0.8307 -1.4137 -0.7217 0.0001 -3.1513 -6.7417 -2.1771 -5.3621 -3.4288 -1.3517 -3.1986 -3.3745 -2.1598 -3.3555 -1.9674 2.1861 1.7272 1.5318
-0.4313 -3.0157 -1.4241 -10.0835 1.3178 -0.5515 0.8194 -8.3787 -0.4850 -0.3261 -3.5906 -6.9042 -1.6111 -1.8797 -1.0926 -1.3506 -2.9978 -6.5559 -2.2776 -6.2913 -4.5908 -3.7409 -6.6845 -3.5528 -1.9855 -3.1124 -5.4635 -1.0510 -1.9131 0.8917
-2.1254 -2.5822 -1.4194 -10.7576 0.9853 -0.6656 0.5673 -7.7986 0.0142 -0.7167 -4.2461 -7.2349 -2.5465 -2.6166 -1.4351 -1.3836 -2.4477 -6.1213 -2.7440 -6.1602 -6.0831 -5.5655 -6.8103 -3.2525 -2.9255 -4.3012 -6.9776 -2.5602 -4.0631 -1.7231
-2.3664 -2.8047 -1.4073 -10.5234 0.8573 -1.1518 0.3414 -6.6203 -0.1354 -0.9813 -4.7941 -7.1584 -2.3535 -2.5713 -1.8153 -0.7660 -1.3081 -5.3479 -2.4808 -5.0179 -6.8461 -4.5332 -3.3181 -2.5575 -3.9442 -4.1046 -5.5277 -0.8260 -1.6127 -2.8181
-0.4295 -3.5552 -1.4045 -10.3867 0.9050 -2.0554 0.1712 -5.9811 -0.4345 -1.0172 -5.4029 -6.5496 -1.4940 -1.5499 -2.3772 -0.6572 -0.8909 -4.3096 -1.1920 -4.2695 -5.7209 -2.0829 -1.5831 -2.1270 -4.7323 -1.4919 -4.0475 0.2191 0.7903 -1.8119
3.6421 -5.5331 -1.4648 -11.7514 0.6642 -2.9052 -0.4246 -5.9577 -0.3497 -0.8531 -5.6426 -5.9453 -1.5554 -0.7126 -2.6015 -1.2757 -2.1434 -3.6351 -0.4532 -4.5912 -4.1406 -1.7215 -4.2312 -2.6639 -5.6432 -0.5085 -4.7717 -2.1757 -1.3906 -1.6943
6.3352 -6.7198 -1.7875 -13.7572 -0.1359 -3.4059 -1.2560 -4.8617 -0.4320 -0.5593 -4.8022 -6.4580 -2.4007 -0.5502 -1.6296 -1.9057 -3.9080 -3.5613 -0.9447 -4.8430 -4.4644 -3.0041 -6.6176 -2.9565 -5.7361 -2.2881 -5.7846 -4.2207 -3.8153 -2.4228
4.0169 -4.2211 -2.3307 -13.9903 -0.8120 -3.3133 -1.2270 -3.1330 -1.0632 -0.0054 -2.5456 -8.1129 -3.0383 -0.7398 0.2433 -1.1165 -4.8561 -3.6697 -1.4433 -3.5344 -6.2963 -2.8556 -4.4913 -1.2950 -4.0581 -2.6334 -4.4621 -1.9085 -0.9916 -0.9633
0.6385 -0.9307 -2.6193 -11.4659 -0.5493 -2.6931 -0.2294 -2.9995 -1.7082 0.6419 0.1806 -8.8184 -3.9655 -1.1691 1.4168 0.9922 -4.9281 -3.6665 -1.0569 -1.2093 -7.3508 -1.5905 -0.8290 1.0043 -1.9636 -0.1634 -1.6666 2.1392 4.0403 2.3254
1.5420 -1.3897 -2.4068 -8.5779 0.2372 -1.8293 0.3332 -3.8741 -1.8922 1.0599 0.8167 -7.2533 -5.0486 -1.2837 1.3538 1.6216 -4.4168 -3.2644 -0.2435 0.0631 -6.6818 -1.6991 -0.4721 1.0719 -1.3833 1.5464 -0.1339 3.1229 4.9446 3.7871
3.4120 -3.2992 -2.0840 -8.1186 0.7184 -0.8866 -0.1595 -3.8237 -1.7858 1.3737 -1.6022 -4.7580 -4.6359 -0.4120 1.2820 -0.2848 -3.6379 -2.0971 0.3085 0.1193 -4.7118 -2.6919 -2.4459 -0.8176 -1.6499 1.2454 -0.5496 1.3041 1.8963 2.9990
1.5289 -2.2545 -1.8532 -8.2390 1.0082 -0.4478 -0.6571 -3.2543 -1.6620 1.4787 -4.1826 -2.3351 -2.9245 0.7485 1.4514 -1.6388 -2.7424 -0.3778 0.5164 0.3810 -2.1312 -2.1867 -2.6046 -1.7298 -0.9692 2.1864 -1.0144 0.4200 0.2595 2.9890
-0.8901 -0.0292 -1.4681 -6.1492 1.1640 -1.0160 -0.6331 -2.9261 -1.4691 0.8501 -4.7070 -0.0025 -1.6632 1.0595 1.0252 -0.6789 -1.3147 1.1179 0.8056 0.4725 -0.3971 -0.0107 -0.4153 -0.8645 0.2757 5.0088 -0.0589 1.7243 2.1393 4.1011
0.2123 -0.3564 -0.9774 -3.6884 0.7914 -1.6955 -0.8179 -2.4370 -1.0533 -0.0370 -4.7494 1.1292 -0.9435 0.8071 0.7816 0.1998 0.3802 1.6644 1.3873 -0.5141 -0.3047 2.1011 1.5822 -0.0878 0.6819 5.7281 1.5933 3.3518 4.5658 4.2568
2.4492 -2.1151 -0.4731 -2.3640 0.5400 -1.9260 -1.1525 -1.8667 -0.4456 -0.2637 -5.4590 0.7908 -0.0121 0.9265 1.3255 -0.7356 1.1396 1.1829 1.6383 -1.5830 -0.2860 2.8279 1.9028 -0.0318 0.4480 3.7302 2.6504 3.7495 4.9250 4.1412
3.1256 -2.4116 0.2788 -0.2396 1.1410 -3.1102 -0.7070 -1.4282 0.2488 -0.3207 -5.7461 0.6139 0.9396 1.3491 1.0512 -1.7869 1.1629 0.5273 1.2529 -2.0963 0.6861 2.0252 0.8887 0.3927 0.7624 3.4510 2.7655 3.2306 3.8706 5.6258
4.0916 -1.2112 1.1718 2.7106 1.6786 -5.0865 0.2656 -0.7851 1.0847 -0.6336 -5.2013 1.5982 1.7772 1.6006 0.1406 -0.6148 2.0706 0.6923 1.4004 -2.4743 1.7121 1.2643 0.5642 1.2738 2.4105 6.3465 2.9579 3.5996 3.8052 7.7252
6.4307 0.2675 1.7881 4.8331 1.3519 -5.1885 0.7734 0.0192 1.8746 -0.2486 -4.4816 4.0603 2.8607 1.8560 0.8356 2.4824 4.2078 1.8709 2.6064 -1.9664 3.0411 2.8087 3.1115 1.9876 4.9783 9.4384 5.0865 6.4344 6.4224 9.0868
7.4332 1.4455 1.9498 6.3749 0.7037 -3.8679 0.6785 0.6867 1.9116 0.6754 -4.3221 7.2141 3.8804 2.1128 1.9695 4.1917 6.3824 3.4342 3.1620 -0.7310 4.9432 5.9694 6.3898 2.3905 5.8135 11.0720 8.2321 9.5605 9.6110 9.6592
5.8310 1.5258 1.6940 6.9122 0.2510 -4.1788 0.1561 1.0916 1.1367 0.7022 -5.1579 8.0966 3.9636 1.8337 0.9263 2.1580 7.5040 4.2165 1.9810 -1.3978 5.2982 7.0737 5.4584 1.9269 2.6411 11.6783 8.1827 8.3287 8.6657 8.1059
4.4436 -0.1167 1.4327 5.4556 0.3905 -5.1328 -0.5880 1.1577 0.5758 0.0759 -6.2308 6.3584 3.2029 1.2842 -0.7421 -1.2059 7.3418 3.5070 0.4001 -4.0083 3.9897 4.9821 1.1303 0.7130 -1.4818 11.0128 4.7208 3.7506 4.3534 4.3011
5.0915 -2.2639 1.6942 4.0476 1.4671 -4.2241 -0.7737 1.3465 0.6471 -0.0023 -6.3427 5.8036 2.9562 1.4908 -0.5327 -2.0542 6.9118 2.3245 -0.1536 -4.8364 4.2465 2.9895 -0.3513 0.7895 -1.5203 9.3090 3.2323 2.6401 3.3952 2.0658
5.8776 -2.7869 2.1823 4.2516 2.5500 -3.1289 -0.1290 2.0106 0.8687 0.3635 -5.1767 6.5940 3.8531 2.3995 0.5869 -0.4005 7.1370 2.0994 0.4818 -2.6825 5.6574 3.4460 2.4569 2.7699 1.2238 8.5739 5.4190 6.2218 7.0586 3.0866
5.5812 -1.8945 2.1875 3.6700 2.3789 -3.1636 0.3001 2.1872 1.2729 0.6270 -3.2309 4.7501 4.4026 2.5972 1.1016 1.1394 6.6927 2.1962 1.6329 -0.2072 3.9285 4.2329 4.2130 3.8619 1.5555 8.5780 6.4597 7.6282 8.7289 3.9201
5.3971 -2.0060 1.6806 0.7644 1.2111 -2.4524 -0.3945 1.3214 1.8138 0.4705 -2.3254 0.8549 3.3398 1.4014 1.1394 0.5526 4.3001 1.1737 1.7348 0.3934 -0.4332 2.7304 1.3572 1.9958 -1.2341 5.9643 3.3498 3.0329 4.7795 2.3411
5.0344 -3.3588 0.9329 -2.1102 -0.1190 -1.8909 -1.6700 0.4271 1.6276 -0.4995 -4.2392 -1.4595 1.8554 0.0327 0.5068 -2.5551 1.5172 -0.5934 -0.0273 -1.3821 -2.7045 0.0499 -3.2061 -0.9441 -4.3010 1.3888 -0.9632 -3.1920 -1.0270 -0.3417
3.0114 -3.5559 0.0653 -2.4799 -1.2158 -3.9487 -2.2554 -0.3407 0.7787 -1.7133 -7.0890 -2.9989 1.0374 -0.3412 -0.9041 -5.5595 -0.3393 -2.1730 -1.8532 -4.4710 -3.0917 -1.3287 -4.6263 -2.0379 -6.1330 0.0366 -2.6434 -5.6560 -3.8519 -2.8033
0.7417 -2.4476 -0.4908 -0.8854 -1.5059 -5.9354 -1.8184 -1.6219 0.4038 -2.0313 -7.5002 -5.5051 0.1568 -0.4289 -1.6748 -5.4711 -1.8406 -3.6882 -1.9298 -6.4925 -4.9656 -1.2750 -2.5019 -1.5173 -6.4735 2.5024 -1.5439 -4.3506 -3.1487 -3.9554
0.2109 -2.3083 -0.5028 0.2104 -0.8654 -4.6622 -1.3436 -2.7308 0.4441 -1.6587 -6.2829 -7.1629 -0.7491 -1.0409 -1.1467 -4.2399 -2.5061 -4.7632 -1.2772 -6.7559 -6.7931 -1.0299 -0.8693 -1.7076 -6.0575 4.3315 -0.0589 -2.9648 -2.2480 -3.1535
0.1380 -3.1910 -0.6492 -0.8302 -0.3073 -2.9971 -1.6542 -3.5349 0.0926 -1.2763 -5.9887 -7.3416 -0.9716 -1.2464 -0.6333 -5.0408 -1.9897 -4.4306 -1.2940 -6.3689 -6.0475 -1.3183 -2.3800 -2.8511 -6.6167 3.6521 -0.2535 -4.1184 -3.7913 -2.1359
-0.2184 -3.4311 -1.2960 -3.5008 -0.3040 -3.7061 -2.3058 -4.7869 -0.3274 -0.6387 -5.3870 -7.6451 -1.2579 -0.2375 -0.6722 -6.1858 -2.2708 -3.2254 -1.3930 -4.9744 -5.1767 -2.3695 -5.0252 -3.3049 -7.9420 1.7455 -2.1849 -6.7475 -5.9894 -1.7127
0.4598 -2.9551 -1.6402 -5.5829 -0.1499 -4.4319 -2.4579 -4.9589 -0.4424 -0.0481 -3.0700 -7.1223 -1.9827 0.9530 -0.6590 -5.3634 -3.4954 -2.4646 -1.1367 -2.6220 -5.4456 -3.2264 -5.3047 -3.0790 -7.8536 0.5065 -3.3518 -7.2496 -5.3857 -0.4763
0.8584 -2.3498 -1.2390 -4.6854 0.1772 -3.5159 -2.1799 -2.6135 -0.8035 -0.4804 -1.9696 -4.1560 -2.1501 1.1781 -0.7974 -3.8290 -2.7387 -2.2878 -1.2515 -1.8500 -3.8502 -2.2547 -2.8171 -3.3191 -6.2568 1.9484 -1.5827 -4.2479 -2.1960 -0.7792
-0.1149 -1.7109 -0.6977 -1.5196 0.0089 -2.7587 -2.0782 0.0968 -1.2681 -1.3075 -3.7935 -1.0279 -1.5302 0.7476 -0.7676 -2.7898 -0.0057 -2.3942 -1.6045 -3.0558 -0.8541 -0.3197 -0.6078 -3.5263 -5.1423 5.0774 1.1336 -1.1894 0.1684 -4.5628
0.6578 -1.2808 -0.3500 -0.2932 -0.2799 -2.9631 -1.9933 1.0458 -0.9989 -1.2558 -5.0309 -0.4317 -0.5854 0.3058 0.4389 -1.8646 1.2491 -2.8717 -1.6299 -3.5672 -0.4544 -0.2179 -1.4181 -2.7597 -4.9752 6.2913 1.4438 -1.5529 -0.3451 -5.0729
2.8112 -0.6322 -0.0127 -1.9997 0.1149 -2.9562 -1.2567 0.6843 -0.3469 -1.0240 -3.3534 -0.8352 0.0754 -0.1964 1.2851 -0.8836 0.2790 -3.4903 -2.0367 -2.9843 -1.9105 -1.9518 -4.2332 -1.6938 -4.4147 5.4359 0.0097 -3.7352 -2.2548 1.0888
1.4920 0.9108 0.4322 -1.7218 0.9898 -2.4625 -0.1211 0.0782 -0.0399 -1.5711 -1.0212 0.2118 -0.4795 -0.7055 -0.2767 0.1195 -0.6767 -3.8089 -3.1449 -2.8548 -1.7506 -2.7567 -5.4077 -1.1685 -2.9615 5.4356 -0.3555 -4.0440 -2.4384 5.1424
-1.3873 2.0820 1.0941 2.5620 1.6430 -2.6068 0.4730 0.3171 0.2631 -1.9924 0.1928 1.8611 -1.5198 -0.8310 -2.5443 0.6368 -0.9224 -3.6535 -3.7652 -2.8771 -0.9364 -1.7094 -3.5856 -0.9282 -2.0030 6.6906 0.5704 -2.3614 -0.2743 3.1730
0.4125 1.0315 1.6297 6.0037 1.6420 -4.0859 0.3413 1.4324 0.4826 -1.7818 0.6187 2.2266 -1.2550 -0.8703 -3.2967 0.1520 -1.1896 -2.9334 -3.3326 -2.3978 -1.6489 -0.5520 -1.6339 -0.6870 -2.5874 7.5248 1.1937 -1.5810 1.4527 2.0472
4.9654 -1.3789 1.3252 5.4118 0.8764 -5.6078 -0.0798 1.5974 -0.1000 -1.9172 -0.2259 1.5502 -0.4174 -1.4024 -3.2169 -0.3470 -1.3370 -2.0199 -2.5180 -2.3144 -2.4918 -0.7175 -2.3556 -0.7005 -3.5772 7.6455 0.7576 -3.0538 0.8508 2.4152
5.6622 -2.3798 0.3754 3.1068 -0.2368 -5.3048 -0.5537 0.3659 -0.9070 -2.3379 -2.2515 1.0074 -0.8684 -1.9834 -3.1185 -0.3051 -1.1934 -1.9205 -1.9618 -3.2209 -2.4379 -1.9402 -4.4753 -1.1957 -3.9244 7.0075 -0.7570 -5.1948 -0.7723 -0.9710
2.8453 -1.1140 -0.2807 1.6430 -0.8087 -3.9506 -0.6591 -0.5404 -0.9238 -1.9520 -2.9021 0.7669 -2.0643 -1.8172 -2.7702 -0.4095 -1.1454 -2.8912 -1.9277 -4.1103 -2.8367 -2.8841 -4.7226 -1.6294 -4.1076 5.1259 -2.5415 -5.7806 -1.3567 -4.2838
2.5685 0.2276 -0.2650 1.4748 -0.4667 -3.6231 0.0255 -0.7197 -0.4482 -1.1651 -1.1620 0.3939 -2.3126 -1.0866 -2.4331 0.2230 -0.6642 -3.6084 -1.9141 -3.5859 -3.0352 -2.0829 -2.2299 -0.8691 -3.6773 4.9528 -2.3107 -3.8122 0.0489 -1.2785
6.5412 -0.0729 0.0897 2.4991 -0.0776 -3.9896 0.9358 -0.8173 -0.2328 -1.2411 0.4211 0.0435 -1.2795 -0.4886 -2.2026 2.1887 1.0928 -2.8625 -0.9880 -2.1189 -0.8655 0.6539 0.6408 1.0087 -1.6344 10.1423 0.9492 -0.1402 2.8120 3.7961
9.1559 -0.3067 0.4535 4.7913 -0.3442 -3.9898 1.2818 0.2498 -0.4769 -1.9172 0.5267 0.7352 0.2336 -0.2227 -1.6352 3.1247 3.1929 -1.2902 0.4334 -1.9837 2.5408 3.3189 1.1234 2.2707 0.7180 15.6029 3.9934 2.3068 4.4034 5.5616
6.5990 1.3615 1.0018 7.6851 -0.3735 -4.0799 1.2373 3.4283 -0.6953 -1.9297 0.8861 2.9654 1.5559 -0.0370 -0.8310 2.4384 3.9611 0.0199 1.1375 -3.2392 4.2935 3.8920 -0.4218 2.1099 1.7015 13.5536 3.8210 1.6963 3.4906 6.4252
4.1077 2.7146 1.8041 8.6025 0.4300 -3.9041 1.1059 6.2338 -0.2111 -1.0281 1.8833 5.2819 2.4239 0.3523 0.0237 2.9395 3.4576 1.4468 1.3907 -2.8641 4.4326 3.5346 -0.3775 1.8873 2.1997 8.6285 3.5683 1.5349 3.4166 8.0456
6.2828 1.1944 2.0477 6.4253 0.8994 -2.8677 0.5708 5.4430 0.4662 -0.1881 1.5032 5.6779 2.2939 0.9110 0.8801 4.4223 2.9280 3.0355 1.6958 -0.5512 4.6984 4.4991 2.6624 2.4083 2.9730 9.3724 6.5523 5.1969 6.7825 7.7226
6.9939 -0.8804 1.3369 4.6206 0.6889 -2.9063 -0.4227 2.1256 0.2864 -0.3095 -0.3413 4.1786 0.8997 1.1107 0.8061 3.6106 2.7691 3.0920 1.0096 0.0856 5.0772 5.6668 4.5363 2.1353 2.1401 11.7332 8.2524 7.4079 8.3965 4.7416
2.3795 -0.9830 0.6646 5.2714 0.9312 -5.2026 -1.3712 -0.1998 -0.2440 -1.1663 -1.2971 2.9075 -0.4360 0.7538 -0.4558 1.0047 2.5647 1.6417 -0.4889 -1.4181 4.8177 5.0355 1.9812 0.5215 -1.0164 9.4625 4.2195 2.5602 3.2845 1.4195
1.2642 -1.6451 0.6473 5.6982 1.2134 -7.3251 -2.0169 -0.6026 -0.1112 -1.7874 -1.1675 3.4910 -0.3630 0.5466 -1.0163 -0.3544 2.2780 1.2795 -0.5900 -1.6054 4.1513 4.1592 -1.3495 -0.0013 -3.4207 6.8036 -0.6417 -3.4094 -2.7255 -0.2426
5.9944 -3.6549 0.9007 5.4068 0.5966 -7.3111 -2.3076 0.1854 0.4425 -1.7232 -1.6540 4.9280 0.4076 0.8213 -0.1703 -0.5354 2.2460 2.0780 0.4937 -0.3859 3.1239 4.6760 -0.8551 1.2023 -3.0978 6.9387 -0.9442 -3.2911 -2.5627 -0.4595
8.0418 -3.7398 1.3208 6.0259 0.2279 -6.2551 -1.9550 1.7973 0.9440 -1.2286 -1.7306 5.4295 0.9511 1.0119 0.3846 -0.1450 2.6140 1.6599 0.5965 0.1056 2.2396 5.2220 2.0850 1.7070 -1.7857 6.5942 0.7892 -0.5370 0.5670 -0.5721
12.7820 -4.2542 1.6172 4.9057 0.2874 -5.7583 -1.0789 2.7564 1.1374 -0.6110 0.2093 5.3329 1.7915 1.0843 0.6642 2.4280 3.2260 0.8358 0.5284 1.6306 3.3240 5.2269 3.7516 1.9368 -0.1683 7.1494 1.7226 0.4079 1.9378 0.5695
23.9000 -7.5323 1.0746 1.2770 -0.6705 -5.7113 -0.4817 2.0588 0.5421 -0.3180 1.7612 5.0264 2.4492 1.2690 1.6902 5.6439 3.1004 1.5992 1.4564 4.4191 5.0406 4.8163 2.7527 3.6483 2.0680 10.4020 2.1832 0.4236 2.0149 3.3824
17.7472 -5.2241 0.2453 1.3234 -1.1352 -4.6350 -0.5034 1.3216 -0.3833 -0.7369 0.8141 3.5282 1.0858 0.7958 1.5535 4.9600 1.1306 2.0203 1.0516 2.8382 3.3288 2.2669 -0.3848 3.9894 2.0765 9.1971 0.4838 -1.5537 -0.0765 2.4660
-8.6958 4.3342 0.3299 6.1007 0.6466 -2.3527 -0.6519 1.5250 -0.4800 -1.3666 -0.1820 2.3620 -1.1795 -0.4583 -0.5814 1.6695 -1.1413 0.7136 -1.0027 -3.3008 0.2393 -1.1725 -2.7660 1.2599 -1.0708 1.8499 -2.9105 -5.3246 -3.6779 -3.0717
-17.3668 8.1393 0.7558 7.9399 1.5934 -1.1838 -0.5999 1.3588 -0.0997 -1.5171 0.4579 3.6930 -0.9781 -0.9358 -0.9802 1.3570 -0.8415 0.4147 -0.9739 -5.1819 1.1577 -0.9024 -1.3540 0.0366 -2.2038 -0.4923 -2.4980 -4.8353 -2.3897 -3.4168
-0.8564 3.9146 0.2368 5.0281 -0.4694 -2.3265 -0.3533 0.1179 -0.3863 -1.5796 0.7698 5.0545 0.9993 -0.1399 1.6580 4.0483 1.3802 1.7570 1.3717 -0.3012 4.0567 2.3032 1.3615 2.4109 1.3602 5.4355 1.8193 0.4400 3.6788 4.1806
8.0870 2.3126 -0.5316 3.2450 -2.3060 -4.0123 0.1569 -0.7011 -0.9208 -2.1826 0.0356 4.6241 1.5078 0.4367 2.8872 5.7897 2.8551 1.9693 2.2071 3.5076 4.7065 3.5005 0.7440 3.9169 5.0893 9.8459 3.3261 2.7392 5.3293 8.6494
4.0017 3.6163 0.0341 4.1273 -1.6730 -4.7512 0.5192 1.0067 -0.6634 -2.8474 -0.4097 5.2647 1.4060 0.0326 0.6114 5.6042 3.5396 1.3004 0.7207 2.5709 4.9006 2.7255 -1.8191 2.1596 4.7271 9.2927 0.5434 -0.1578 0.8540 4.7761
4.3332 1.9803 1.6182 5.4856 -0.4574 -4.4528 0.0096 4.0971 0.2055 -2.6988 -0.1786 7.3202 2.9888 -0.4494 -1.5618 4.7110 4.4503 2.1265 -0.8454 1.2722 6.0773 3.2477 -1.7960 0.1682 1.4936 8.7811 -1.3749 -2.5728 -1.7148 -0.2525
7.4233 -0.0799 2.6149 7.4914 -0.0719 -2.9716 -0.8819 4.4980 0.9433 -1.9323 0.6126 7.7717 4.6802 -0.2272 -1.2737 4.1451 5.3799 3.5726 -1.3884 1.8885 6.5466 4.9342 0.8678 0.2617 -0.7212 9.9191 0.4301 -1.4424 0.7527 -1.2833
6.6023 0.7962 2.6129 9.4683 -0.0508 -1.1223 -0.8712 2.4957 1.1569 -1.6047 1.2659 7.3217 4.7360 0.3461 -0.4703 4.3590 6.4969 3.5566 -1.1428 2.3584 7.2364 5.6533 2.6226 0.9793 -0.2576 12.1309 3.6733 0.6132 3.5337 -0.0975
6.6829 2.0982 2.3656 9.3541 -0.2553 -0.8598 -0.1153 2.5625 0.8481 -2.0330 0.3320 8.2816 4.2786 0.4659 -0.6391 4.5581 7.7694 2.6513 -0.6895 2.1056 8.8916 4.8754 1.7202 0.6126 1.0673 14.6632 4.4745 0.5072 3.1978 1.0690
8.4374 1.6642 2.0659 8.0275 -0.8555 -2.2545 0.1014 4.0927 0.5407 -2.4400 -1.7801 8.8355 3.6793 0.0356 -0.7865 3.7796 7.5811 2.2293 -0.4947 2.0642 7.7566 3.2930 -0.0026 0.0287 1.6992 13.2750 2.1075 -1.0099 1.2866 1.7039
6.8169 0.6039 1.3797 7.1015 -1.5467 -3.0468 -0.4568 2.8652 0.6435 -2.4438 -3.3597 6.8017 2.2801 -0.2015 -0.6457 2.1431 5.5454 2.1657 -0.5280 1.4334 2.7587 1.7967 0.1035 0.1614 1.8271 7.2832 0.1210 -1.0831 0.3159 1.3826
3.4453 -0.1583 0.5439 5.6406 -2.0027 -2.0423 -1.1142 -0.1270 0.6509 -2.4618 -3.5854 3.9408 1.0732 0.0155 -1.3926 0.2844 3.5809 1.8195 -0.9993 -0.5502 -0.9266 1.0887 1.5597 -0.3535 0.7239 3.1182 0.3239 -0.4368 -0.0626 -0.5333
3.4248 -1.4182 0.0887 3.0869 -2.1533 -0.5758 -1.5242 -1.0839 0.1368 -2.4358 -2.0670 2.2400 0.9145 -0.0097 -2.8035 -1.1120 2.5421 1.1867 -1.9629 -2.2263 -1.2481 1.0091 1.2834 -1.8491 -1.8756 2.4467 -0.1518 -2.0703 -1.3539 -3.3069
5.5825 -3.0406 0.0605 1.0780 -2.1052 -0.1607 -1.5157 0.1491 -0.2733 -2.0328 -0.1971 1.4250 1.1214 -0.4214 -3.2974 -1.6548 1.7544 0.7437 -2.2493 -2.2067 -2.0875 0.8750 -1.2336 -1.8677 -3.4266 0.8973 -2.5042 -4.6657 -2.6327 -4.5037
5.2632 -3.1447 0.1785 0.5868 -1.9355 -0.4090 -1.1638 1.5565 -0.2163 -1.8258 -0.7284 1.2931 1.5319 -0.5211 -2.7756 -1.4471 1.0973 0.7375 -1.5306 -1.4937 -4.1753 0.5590 -2.6041 -0.1843 -2.6406 -0.9272 -4.1684 -5.0032 -2.3594 -3.6760
2.5030 -1.7086 0.2556 0.5952 -1.4632 -0.1865 -1.0434 2.1238 -0.3291 -2.1793 -2.4338 1.6826 2.2689 -0.3553 -2.3722 -0.7012 0.5996 0.9656 -1.3652 -0.7263 -4.0355 0.6901 -0.6026 0.1511 -1.5143 -0.1169 -4.0638 -3.5867 -0.9963 -3.2013
1.6717 -0.8601 0.2464 0.5451 -0.9520 0.7318 -1.2602 2.0820 -0.7163 -2.1505 -1.3251 1.5439 2.4297 -0.3397 -1.8407 0.1518 0.3167 1.2488 -1.8354 0.8942 -1.5118 1.6960 2.5583 -1.0332 -0.8681 1.6871 -3.2916 -2.1031 0.6692 -3.3965
4.3916 -0.8788 0.1236 1.4922 -1.0902 2.1980 -1.2188 2.1913 -0.8196 -1.2635 2.1695 0.7867 1.6098 0.1378 -0.0670 0.7784 0.8431 1.3241 -1.2329 2.6987 0.5356 2.3787 3.1737 -0.7922 0.5155 3.0895 -2.6989 -1.3313 1.5694 -2.2030
6.7963 -0.3708 0.0100 3.5241 -1.3038 3.7071 -0.6677 2.8341 -0.7718 -0.3285 4.3019 0.4455 0.7222 1.3118 2.1168 1.5293 1.5643 0.8358 0.1092 2.6143 1.2496 1.0233 0.9360 0.9947 2.4265 4.7013 -2.6167 -1.9980 0.3766 -0.0526
5.4322 0.4957 0.2763 4.5762 -0.4826 3.8380 0.0258 4.0884 -0.7526 0.2302 4.3100 0.7397 0.5117 1.9691 2.6017 2.1303 0.9499 0.1835 0.5268 0.7039 1.0752 -1.1823 -0.8185 1.9489 3.0661 4.8874 -2.4863 -2.6406 -1.1427 0.3908
2.9251 0.5661 0.8052 3.8894 0.4915 2.4357 0.3640 5.5209 -0.4247 0.6654 4.2730 1.3687 0.7141 1.7853 1.7196 1.8101 -0.2144 0.0856 0.5383 -0.1968 0.1882 -1.1760 0.0993 1.9221 1.9054 2.8357 -1.5650 -0.8505 0.1244 -0.9246
3.4339 0.2131 0.8596 3.7188 0.2697 1.4771 0.2240 5.6378 -0.0857 0.9346 5.0387 2.4512 0.5039 1.9397 1.8073 1.6918 0.1619 0.4786 1.3491 1.4414 0.0973 1.0619 2.0436 2.5180 0.9285 2.3719 -0.2445 2.0346 3.1100 -0.9189
5.3861 0.4354 0.6446 5.2484 -0.2264 1.4863 -0.0799 4.4576 -0.0130 0.8639 5.3199 3.5990 -0.2755 2.2986 2.6595 2.5851 1.6512 1.0050 1.9588 2.5703 2.1199 2.5965 1.9009 3.3845 1.3348 5.5602 0.6588 2.4379 3.8005 0.9395
5.0763 0.4729 1.2272 6.6302 0.2270 0.9670 -0.3599 4.5581 0.4615 0.5374 4.1288 3.9075 -0.6028 1.5110 1.9188 2.1338 2.2974 1.2666 1.0400 0.0692 4.0221 2.0866 -1.0937 2.5674 0.8380 7.6723 0.4121 -0.3947 0.8862 0.7726
3.8232 -0.8365 2.2748 6.6232 0.9451 0.1163 -0.5282 6.4899 1.1438 0.2313 2.5780 3.6010 0.0687 -0.0039 -0.0096 -0.3109 1.8854 0.6759 -0.4040 -3.0235 3.3289 1.1281 -3.7757 0.4183 -1.5540 5.1839 -0.8687 -3.4287 -2.3595 -2.3592
4.5243 -2.4755 2.5630 5.7507 1.2640 0.2788 -0.3568 7.6778 1.0577 0.3159 1.7630 3.7032 0.9948 -0.5862 -0.5835 -1.2614 1.5359 -0.1842 -0.7464 -2.2063 2.1446 1.6354 -2.8043 -0.2773 -2.6326 2.4638 -1.1919 -3.4438 -2.2259 -3.9393
5.4180 -2.6462 2.3214 4.1204 1.6988 0.8262 -0.0709 7.1956 0.7631 0.8357 0.7084 4.1685 1.5168 -0.1075 0.0721 0.1425 1.6832 0.0296 -0.5219 0.4955 3.0947 3.0600 0.0310 0.7330 -1.3764 3.5461 0.2621 -1.3939 0.0399 -2.4971
3.8094 -1.4203 2.4065 2.2158 2.3142 0.6134 -0.1447 6.6618 1.1087 1.2375 -0.7566 4.2322 1.5540 0.2740 -0.2594 0.5264 1.8060 0.7565 -1.2541 0.2687 4.3161 2.8887 0.1910 0.4988 -1.1243 5.4877 0.5869 -1.4420 -0.0311 -1.9526
1.6897 -0.5971 2.6252 1.7390 2.4592 0.0668 -0.5965 6.9331 1.4144 0.9315 -1.1787 3.7796 1.2051 0.0988 -1.6490 -1.0033 1.3381 0.6505 -2.6370 -2.6974 3.6198 0.7823 -2.4561 -1.4305 -2.9815 5.4156 -2.1198 -4.8066 -3.3277 -3.9553
1.9428 -1.4368 2.4420 2.2957 1.8374 -0.4059 -1.4901 7.1293 1.2689 0.0208 -1.4997 3.1334 0.7524 -0.2308 -2.1214 -2.1652 0.4463 0.3886 -3.2487 -4.7149 2.3051 -0.5314 -3.9069 -2.4818 -4.4877 4.4976 -4.9918 -8.0426 -6.4832 -6.3000
2.9168 -2.7248 1.8876 1.2809 0.9095 -1.0104 -2.5948 6.4152 1.1847 -0.7051 -3.1251 2.7174 0.4532 -0.4585 -1.3099 -2.2390 -0.0558 0.9234 -2.9192 -4.2834 1.9162 0.0462 -2.5494 -2.2624 -4.4610 3.5593 -5.1206 -8.2944 -7.0870 -7.6718
1.8973 -2.3495 1.5577 -0.3135 0.8820 -0.9116 -2.5460 5.5710 1.1834 -0.5346 -3.5144 3.0410 0.4325 -0.4246 -0.9503 -1.6909 0.5859 1.5026 -2.2045 -2.5720 2.5474 0.6818 -0.7411 -1.9959 -3.5032 3.1114 -3.6983 -6.6038 -5.8289 -7.7184
0.2441 -0.7493 1.8123 1.0466 2.1312 0.7552 -0.9039 5.3405 1.0871 0.3613 -1.1846 3.8178 0.4483 0.1231 -1.4567 -0.2247 2.1446 1.3289 -1.2226 -0.8078 3.6547 0.0049 -0.9152 -1.2844 -1.8808 3.7807 -3.2430 -5.7426 -4.9599 -5.7651
0.3914 -0.2467 1.8524 3.2413 2.9893 2.5029 0.4594 4.3883 0.9453 0.9551 0.6139 3.5744 -0.1079 0.6673 -1.4347 1.5597 2.8071 0.5759 -0.4482 0.2472 3.1877 -2.0301 -2.7407 -0.1346 0.0310 2.9828 -4.3658 -6.7897 -5.7912 -2.9479
1.1778 -1.4806 1.0193 1.2428 2.4882 2.4557 0.3779 2.4019 0.5522 0.5025 -0.0837 1.1487 -0.8926 0.4804 -1.1216 1.9978 1.0631 -0.2742 -0.5020 0.1262 -0.1486 -4.4288 -3.4488 0.3418 1.4079 -0.7753 -5.5842 -7.7613 -6.5005 -1.9394
0.2923 -2.7762 0.1504 -3.2541 2.0374 1.5144 -0.0435 1.7513 0.0011 -0.2475 -1.6731 -2.2835 -1.0092 0.3044 -1.5936 0.9532 -1.4503 -0.7960 -0.7305 -0.0771 -3.4326 -4.9457 -1.3522 0.6511 2.0038 -2.8096 -5.0662 -6.3911 -4.7418 -3.3140
-1.3613 -2.6518 -0.0833 -5.2436 2.4537 1.2700 -0.0179 2.6763 -0.0951 0.1325 -2.6405 -4.0393 -1.1428 1.0214 -1.3941 0.1649 -1.9799 -0.9161 -0.0479 1.2425 -3.5217 -3.2390 1.0695 1.7025 2.5852 -0.6470 -3.5412 -4.0456 -2.2319 -4.6147
-1.3988 -1.8128 -0.0412 -4.4754 2.9011 1.1433 0.0196 2.7788 0.3167 1.4258 -2.4078 -3.7936 -2.0513 1.6137 0.3901 0.7582 -1.0297 -0.7605 1.0190 2.5247 -2.2084 -2.3613 0.3801 2.4508 3.9045 0.8383 -3.4551 -3.7462 -2.1015 -3.6893
-0.1991 -1.9350 0.2535 -2.7695 3.0240 0.5500 -0.1060 2.0858 0.6599 1.9979 -1.5209 -3.8158 -2.4305 1.0137 1.1039 1.6199 -0.9098 -0.3625 0.9082 0.8197 -2.6720 -3.5561 -2.3936 1.6439 4.8946 -0.8798 -4.6536 -5.3195 -3.8331 -2.0409
0.0545 -3.0122 0.7521 -1.1079 2.8220 0.3658 -0.4279 2.1041 0.7570 1.4502 -1.6173 -4.7455 -1.7040 0.0673 -0.5148 0.8082 -1.7404 -0.1635 -0.5129 -2.4008 -4.5275 -4.0729 -3.4098 -0.2934 3.5624 -3.0309 -5.3888 -6.4770 -5.0820 -2.7933
-0.7665 -3.8501 0.6968 -1.4067 2.0448 0.3565 -1.1712 2.0244 0.9122 0.8465 -2.9400 -5.4809 -1.4319 -0.1431 -1.8957 -1.5944 -2.4872 -0.6159 -1.6220 -3.3165 -5.6803 -2.4805 -1.8395 -1.6371 0.8138 -4.7104 -5.8219 -6.6482 -4.9951 -5.3265
-0.9147 -4.0211 0.2623 -3.2366 1.5421 -0.3252 -1.6204 1.0557 1.2314 0.8734 -3.9779 -5.6817 -1.7234 0.2616 -1.6558 -3.0817 -2.9889 -0.9274 -1.2890 -1.9787 -5.2147 -0.8485 -0.5056 -0.9609 0.2363 -5.1554 -5.9341 -6.5199 -4.1885 -5.7951
0.5693 -3.5428 0.7187 -2.6940 2.3508 -0.2536 -0.8032 1.0277 1.5895 1.4078 -3.4336 -4.4922 -0.9522 0.8357 -1.1564 -2.2125 -2.8216 -0.0839 -0.2676 -0.3319 -3.2635 -0.9158 -1.7454 0.6593 2.4505 -1.4800 -4.7272 -6.5592 -4.4112 -3.3604
3.0223 -2.7817 2.0422 0.3802 3.3458 1.3531 0.3714 3.2222 1.9408 1.7114 -1.3979 -1.1896 0.5337 1.1908 -1.2735 -0.8439 -1.5919 1.2552 0.0179 1.7042 -0.9704 -1.8687 -4.4576 0.8337 3.8109 3.7456 -3.4643 -6.9977 -6.1806 -1.5490
4.6708 -2.5495 2.8362 1.9538 2.9036 1.9133 0.4598 5.7494 2.1718 0.9584 0.3243 2.1719 1.2539 0.8676 -1.7932 -0.4050 -0.1577 1.9318 -0.4891 3.7761 0.2143 -1.6427 -5.1461 0.1455 2.6182 4.3899 -3.4218 -6.6563 -6.3823 -2.5220
4.6790 -2.4747 2.6872 1.4244 1.7579 0.7474 0.1106 6.2270 2.1426 -0.1970 0.4001 4.1537 1.5728 0.2897 -2.1866 0.6528 1.0294 1.9772 -0.6578 4.3857 0.4992 0.4334 -2.5222 1.1173 1.4834 2.3860 -2.6607 -4.0868 -3.0401 -3.8241
4.6161 -1.6080 2.3843 1.3148 1.6027 0.8509 0.5013 4.8755 2.0281 -0.0904 0.0167 6.1349 1.8945 0.5527 -1.7446 2.3196 2.2820 1.3972 -0.3103 4.0429 1.1436 1.9965 0.0457 3.0448 1.7824 3.8953 -0.6354 -1.6278 -0.0103 -2.9133
5.2026 -0.4204 2.2218 1.7413 2.4293 2.6044 1.2670 3.6911 1.9150 1.3219 0.3783 7.6501 1.2332 1.3589 -0.6443 2.1178 2.8265 -0.3178 -0.2032 4.2394 1.9364 0.5693 -0.8583 3.2493 1.9430 7.3931 -0.2143 -2.9296 -1.1837 -1.2691
4.5745 0.4310 1.8703 1.7474 3.0649 3.6433 1.7840 3.8719 1.4170 2.5413 0.6800 6.7930 -0.1477 1.3702 0.3773 1.0774 2.2409 -2.1958 -0.0965 4.8402 1.4020 -2.0876 -3.4169 2.1238 1.9287 7.7725 -1.5927 -5.9571 -3.8875 -0.6571
2.9590 0.9053 1.5237 2.6045 3.0169 4.0138 1.9256 5.0177 0.6265 2.8200 0.0055 5.2652 -0.6202 0.7334 1.3752 2.3311 2.2496 -2.1676 0.5559 5.0577 -0.3617 -2.1215 -3.0960 2.0336 3.0043 5.8224 -1.3692 -5.4419 -3.2242 0.4009
3.5888 0.4515 1.8658 4.9852 2.6520 4.5567 1.5342 6.4404 0.6113 2.3514 -1.3130 5.5187 0.1530 0.5671 2.0335 4.5716 3.9679 -0.1845 0.9522 4.3436 -0.8835 0.6973 0.6832 3.3753 4.1080 5.2778 1.0728 -1.4419 0.6575 2.8689
6.5369 -0.6522 2.8986 6.7095 2.2656 4.1786 0.9649 8.0792 1.6990 1.2885 -2.2290 6.5949 1.4226 0.7585 1.1828 4.9456 5.8050 1.6419 0.2247 2.4798 1.3052 3.2435 3.5000 4.6127 3.6634 6.5906 2.5883 1.0626 3.2505 4.4388
7.6835 -0.5890 3.6886 6.8901 1.7697 2.6758 0.8072 9.7127 2.4996 0.0208 -1.9863 7.5710 2.4565 0.5308 -0.8508 3.9651 5.6897 1.9269 -1.2433 0.6321 3.9414 3.5360 2.0883 4.2256 2.3317 7.6198 1.2812 -0.7039 1.3353 3.0727
5.6113 0.6486 3.6019 7.1927 1.2217 1.7330 0.7881 10.4968 2.0496 -0.6783 -1.1074 8.7221 2.3748 -0.2120 -2.2457 2.5647 3.4087 1.0695 -2.7234 0.4545 4.0543 1.9141 -1.3239 2.2289 1.0148 6.8991 -1.5978 -4.8967 -3.5178 -0.1526
3.7942 0.7961 2.9832 7.4099 0.7463 1.8007 0.5426 9.8784 1.2046 -0.7703 -0.9002 8.6280 1.3209 -1.1373 -2.5289 0.7826 0.7614 0.1296 -3.6356 1.5230 2.3147 -0.0884 -2.6064 0.5304 -0.4080 4.9741 -3.4874 -7.5963 -6.5307 -2.7346
3.9637 -0.1680 2.3088 6.5779 0.0379 1.5218 0.4782 8.2130 0.8177 -1.0712 -1.6126 6.7006 0.7192 -1.7079 -2.5969 -0.1457 -0.0202 -0.2390 -3.4084 1.7702 1.4581 -0.5969 -1.0629 0.6351 -1.3167 3.3676 -2.7216 -6.4188 -5.3169 -3.1449
3.7977 -0.0365 1.6117 6.2198 -0.7861 0.7025 0.7795 6.3252 0.5747 -1.4625 -1.9057 5.3540 0.5959 -1.4485 -2.2270 0.1629 1.1899 -0.0797 -2.0535 0.7374 2.0349 0.4198 0.4751 1.9517 -0.5767 3.0052 -0.3924 -3.4219 -2.7985 -1.4622
2.9696 0.8780 0.9005 6.3788 -0.8528 0.8859 0.8959 4.8201 0.1141 -0.9733 -0.8253 5.7523 -0.3761 -0.7958 -0.5826 0.3511 2.4720 0.5302 -0.3539 0.3194 2.9478 0.9773 -0.4510 3.4797 1.1940 4.4113 0.8741 -2.6829 -2.5781 0.9491
3.3968 0.7518 0.4732 5.1927 -0.2730 2.0756 0.4622 4.0737 -0.2514 -0.1206 0.7158 6.5763 -1.5048 -0.4766 1.3764 0.2808 2.8315 1.6454 0.8573 1.3625 3.9869 1.0115 -2.3093 4.7826 2.0374 7.0420 0.8860 -3.9351 -3.5721 2.2439
3.9215 0.0748 0.6536 4.2568 -0.0522 2.1387 -0.2570 4.2959 -0.0201 -0.1386 1.5942 7.1375 -0.8489 -0.0954 2.0825 0.4870 2.9381 2.6748 1.3646 2.1652 4.7307 2.3826 -1.1563 5.2162 1.6722 7.5266 1.6559 -3.0992 -2.4122 1.6689
3.3060 -0.3915 1.2107 5.6198 -0.0292 0.7885 -0.7739 4.6184 0.7513 -0.4626 2.0039 7.3002 0.7887 0.9014 1.9793 0.6566 3.2704 3.0236 1.6484 2.0075 4.1760 4.3174 3.1591 5.0157 2.0208 4.3645 3.4344 0.4340 0.8081 0.6607
4.0896 -0.9209 1.5482 7.0230 0.3861 0.2563 -0.6421 4.1401 1.4588 -0.1446 2.3753 6.8007 1.1753 1.7587 2.2974 1.1000 3.5514 3.1337 2.2084 2.4705 3.4199 4.4338 6.1689 5.7827 4.0678 3.2470 4.8014 2.9248 2.8940 1.4659
6.5584 -0.2189 1.6446 6.0623 0.5228 0.9990 0.2481 4.4447 1.8697 0.2755 2.5120 6.2867 1.0369 1.7920 2.7269 2.0006 3.5356 3.5199 2.8337 3.7067 4.2533 3.1808 5.5714 7.5168 6.3624 7.9145 5.3156 2.7646 2.5287 4.1250
6.7437 2.2918 1.6582 2.7402 -0.0991 1.3032 1.2216 6.3607 2.1275 0.4911 2.2802 6.0921 2.1562 1.7204 2.4556 2.2535 3.3171 4.0740 3.0366 4.2801 5.2930 2.5918 4.0772 8.1165 7.3951 11.4343 5.1920 2.3058 1.6518 5.8978
4.3227 3.5987 1.2393 -1.6423 -0.5042 1.0185 1.3799 6.5522 2.0264 1.0058 2.2762 5.3659 3.2130 2.0879 1.8555 2.0342 2.9382 4.6377 2.7869 4.7196 4.3712 3.1950 4.6301 7.2420 7.3522 8.2258 4.4084 3.2346 2.2699 5.2970
3.4474 1.9686 0.6978 -3.8204 -0.1201 0.9528 0.7263 4.1748 1.6202 1.2338 2.7041 4.2183 2.6418 2.1831 1.1513 2.3897 2.5093 4.9171 1.9870 5.2644 2.5400 4.2896 6.4751 6.1672 6.7242 3.4856 3.0274 3.9771 3.5492 4.3132
4.7309 -0.0926 0.9712 -2.4444 0.2281 0.3556 -0.1007 3.9885 1.4715 0.3017 2.0533 3.9600 1.9346 1.5677 -0.4012 2.0977 2.7770 4.6105 0.3845 3.2876 2.0695 4.5109 6.3637 4.2000 5.1468 2.0544 1.1662 2.2140 2.5488 3.6578
4.8083 -0.3954 1.6237 -0.9574 0.3383 -0.9805 -0.6229 6.6825 1.3088 -0.6595 -0.2068 5.0392 2.0397 0.8662 -1.9621 0.6595 3.8633 4.0214 -1.1226 -0.6365 3.2532 2.8302 2.9276 1.0470 3.1430 2.8246 -0.3205 -1.3271 -1.0735 1.5637
3.2108 0.6781 1.5430 -0.9288 1.0961 -1.0473 -0.3833 6.9821 0.4582 -0.1667 -1.2474 6.8303 1.5983 0.5267 -1.3897 0.9941 4.2520 3.4028 -1.2392 -1.2755 4.7250 0.6123 -0.7251 -0.3182 2.8421 5.6621 0.0735 -3.1191 -3.1187 -0.0355
2.7772 2.3003 1.1982 -0.0570 2.1591 1.2779 0.7351 4.2505 -0.2502 1.0498 0.7156 8.5878 0.7558 0.5310 0.5190 4.0393 3.4252 2.5414 -0.5855 1.7985 5.3780 0.0913 -0.9361 1.0948 4.7483 9.5500 2.1758 -1.4294 -0.9665 2.4652
4.0711 3.7289 1.5475 1.6259 2.2016 4.0891 1.8651 2.8698 0.3529 1.6364 2.9737 9.6609 1.0401 1.0250 1.0154 6.3951 2.8549 1.5791 -0.6644 3.3411 5.3686 0.8502 1.2499 1.8151 6.5847 9.7681 4.0143 1.5014 2.1819 6.3596
4.7503 4.0974 1.9657 2.0507 1.3613 5.0094 2.1075 3.1497 1.3269 1.4969 2.9357 9.5261 1.4887 1.4971 0.0352 5.7469 2.5591 0.7038 -1.4613 2.2097 4.6481 0.6573 1.8574 0.2786 6.6536 6.4138 4.0815 2.2723 2.3892 6.5781
4.1717 3.4744 1.4804 1.1443 0.6495 4.2540 1.7660 2.3631 1.1044 0.9953 1.9608 8.3737 0.2457 0.8268 -0.7975 3.4890 1.1766 -0.3306 -2.0695 1.5355 2.4677 -1.1858 -0.3862 -1.1990 5.1101 5.1100 2.3660 0.0212 0.0282 3.9826
4.0947 2.7708 0.6674 0.0546 0.2546 3.6983 1.6780 0.9362 0.2494 0.7416 1.9402 7.3371 -1.4441 -0.5149 -1.0320 2.1308 -0.4814 -1.1152 -2.0727 1.7109 0.1543 -3.3041 -2.6492 -1.3185 2.8005 6.0363 0.6973 -2.2377 -1.6416 2.4948
4.8559 2.3371 0.5038 -0.4590 0.1323 4.0912 1.9232 0.3324 0.1686 1.4018 2.5365 6.8936 -1.5412 -0.8888 -0.6626 2.5188 -0.9618 -0.9757 -1.6683 1.5808 0.0777 -4.2350 -2.1461 -0.7411 1.3079 4.5619 0.9115 -1.3925 -0.5986 2.8635
5.1667 1.8902 0.7310 -0.0562 0.3791 4.8096 1.9904 -0.0315 0.6689 2.3334 3.3887 6.0898 -1.0876 -0.3069 0.1268 3.3080 -1.0768 -0.6599 -1.4727 2.0968 1.2646 -3.8097 -0.2981 0.1224 1.5128 1.4632 1.5290 0.4852 1.2556 3.3593
4.7741 1.5020 0.7436 1.4333 0.6170 5.1310 1.7074 -0.1403 0.8292 2.4806 4.3263 4.7559 -1.8146 -0.0127 0.6424 3.2916 -1.7839 -1.1635 -1.6499 3.7897 1.2348 -2.9054 -0.5867 0.8768 1.9117 0.6505 -0.0275 -0.8388 0.4328 2.8916
3.8720 1.5162 0.5893 3.4216 0.4407 4.7070 1.3187 0.8125 0.6142 2.1516 4.1072 3.9022 -2.8160 -0.2202 1.0307 2.9164 -2.6933 -1.8091 -1.4211 5.2034 0.0055 -2.5838 -2.7082 1.0736 1.3684 0.8276 -2.5135 -4.2969 -2.6919 1.8017
2.5656 1.8015 0.4458 3.9965 0.1013 3.8249 1.0567 1.4634 0.5022 1.8565 3.5649 3.4770 -2.5091 -0.3295 1.6461 2.7152 -3.3638 -1.4701 -0.4425 5.5989 -1.1081 -2.9817 -2.9467 1.0667 1.0548 -0.3646 -2.8290 -5.0919 -4.0072 1.1994
1.9942 1.8678 0.4457 2.8417 0.1261 3.1486 1.0361 0.1519 0.7246 1.4354 5.6407 3.1164 -1.3142 -0.1329 1.5121 2.5847 -3.2894 -0.3207 0.3854 5.4928 -0.8846 -2.9778 -0.3392 1.1827 1.5628 -0.9042 -1.1686 -2.3031 -1.8239 1.3379
2.5121 1.6319 0.7185 2.6594 0.5240 2.9243 1.2638 -1.7624 1.1187 1.1598 8.8333 3.5564 -0.7162 0.0336 0.2332 2.3750 -2.4294 0.5790 0.3046 4.6674 1.3441 -2.2444 1.9988 1.1058 1.8619 -0.1238 -0.2925 0.3905 0.7356 1.3893
2.5864 1.6666 0.9903 4.0812 0.5348 3.1143 1.6098 -2.0473 1.3241 1.1670 8.2830 4.5792 -1.1061 -0.4166 -1.0554 1.6128 -2.1106 0.4469 -0.4828 2.2302 3.7399 -2.2866 1.2922 0.6144 1.2196 -0.0925 -1.3776 0.0282 0.1208 1.0833
1.6909 2.2114 0.9863 4.3210 -0.2254 3.7252 1.7572 -0.8436 1.1858 0.7614 4.9158 4.9070 -1.5155 -1.5903 -1.9028 0.1989 -2.7295 -0.5107 -1.6182 -1.3511 3.7101 -3.5228 -1.8588 -0.3512 -0.6034 0.1447 -3.0083 -2.7776 -3.2122 0.1237
0.8591 2.5207 0.8995 3.0450 -0.7042 4.5513 1.4675 0.0520 0.8035 0.1248 4.3272 4.8021 -1.3469 -2.4915 -2.3113 -0.6244 -2.7690 -1.2999 -2.5928 -3.6327 2.0229 -4.0827 -3.8396 -1.3447 -2.7565 1.6941 -3.1090 -4.7615 -5.1818 -1.5162
0.4187 2.2777 0.7825 2.5560 -0.0430 5.3847 1.1196 -0.2921 0.3538 0.4003 6.9005 4.8779 -1.2417 -2.1151 -1.5373 0.0773 -1.9427 -1.2164 -2.4452 -2.8901 1.2139 -2.9479 -1.7632 -1.0145 -2.7597 2.0910 -1.0666 -3.2188 -2.8657 -1.0968
0.3140 2.0575 0.4340 2.3858 0.8275 5.9988 1.0955 -1.0069 0.0700 1.5344 8.0066 4.2486 -1.6097 -0.9566 0.2184 1.2253 -1.7102 -0.3131 -1.0608 -0.7145 1.7270 -1.3067 2.0880 0.6681 -0.2048 0.7745 1.3862 0.2664 1.3208 2.7201
0.7488 1.6660 -0.0698 0.6842 0.9436 5.6949 0.9111 -1.2521 -0.0613 2.4641 6.1833 2.6067 -2.0097 -0.2723 1.5246 1.0657 -2.4725 0.7547 0.3442 0.0523 2.3817 -0.7567 2.8058 1.4460 1.6847 0.1641 1.8672 1.2754 2.4831 5.2461
0.7456 0.8956 -0.5983 -1.3335 0.6723 4.4342 0.4242 -1.6034 -0.3092 2.7899 3.8347 0.5685 -2.4729 -0.3069 1.8281 -0.2978 -3.6031 0.7612 0.9193 -1.0317 2.0091 -1.8131 0.4332 0.4725 1.4525 0.4734 0.3580 -0.8218 0.1063 3.0566
-0.7063 0.8880 -1.0656 -1.8556 0.3409 3.6457 0.4592 -2.0695 -0.4469 2.7396 2.5702 -1.9956 -3.2240 -0.2992 1.6126 -0.9744 -4.7656 -0.7081 0.8965 -2.1390 0.0659 -3.1936 -0.2367 -0.3534 1.5805 0.0439 -0.6971 -1.7469 -1.6081 -0.2559
-2.0009 1.5702 -1.1782 -1.7689 -0.2083 3.9370 0.9247 -1.6426 -0.0282 2.5696 2.3253 -4.5532 -3.4771 0.1200 1.2902 -0.4938 -5.2868 -1.9298 0.7101 -1.9033 -2.1468 -3.1753 2.3087 -0.2148 3.0746 -1.7162 0.0387 0.3805 -0.4490 -1.2920
-1.2610 0.9212 -1.0294 -2.2464 -0.6789 4.0342 0.7637 -1.3331 0.4540 2.4324 2.6627 -5.7357 -2.7911 0.4401 1.0328 -0.5374 -4.7056 -1.3537 0.6482 -0.9540 -2.4715 -2.3556 4.2906 -0.3852 3.6191 -3.9923 0.8881 2.0202 0.6166 -1.5745
0.2962 -1.1630 -1.2384 -2.9658 -0.7777 3.3259 0.1421 -3.0904 0.1491 2.0923 3.0205 -5.8396 -2.1581 0.2833 0.7622 -1.4260 -4.2651 -0.1121 0.7486 -0.6225 -1.4179 -2.5981 2.9340 -1.2379 2.3324 -5.3386 0.2253 0.7778 -1.4653 -2.2660
0.6560 -2.3719 -1.8042 -3.4633 -0.9712 2.4767 -0.0045 -5.3006 -0.7355 1.2467 2.6880 -5.6047 -2.0760 -0.0666 0.2687 -1.9369 -5.3238 0.1040 0.6149 -0.7434 -1.6451 -3.8161 0.1741 -2.0116 0.9052 -5.7147 -0.8998 -0.9375 -4.5959 -1.9824
-0.1298 -1.6614 -1.9227 -3.2926 -1.5225 1.6035 0.0835 -4.6953 -1.2265 0.2931 1.5495 -4.2328 -1.8372 -0.4695 -0.3603 -2.2734 -6.7162 -0.2142 0.0407 -0.5235 -3.1968 -4.4993 -0.2851 -2.6363 0.0209 -6.1174 -0.8722 -0.7473 -4.6290 -1.0042
-1.2008 -0.2038 -1.2516 -2.1153 -1.8243 0.5867 -0.2686 -1.6188 -0.8773 -0.2501 0.4975 -1.6255 -1.2733 -0.9516 -0.9138 -2.7233 -5.9872 0.2614 -0.5211 -0.7414 -3.2148 -3.7764 2.4281 -3.2009 -0.7739 -5.8688 0.4899 0.9601 -1.4976 -1.2411
-2.1105 0.5320 -0.4419 -0.7576 -1.5751 -0.3543 -0.7538 1.1571 -0.3074 -0.5865 -0.5202 0.4546 -0.7765 -0.9486 -1.2615 -2.5020 -3.2434 1.4452 -0.5427 -2.0899 -1.2172 -2.1384 4.9496 -3.2496 -1.0109 -4.6630 2.3811 3.1130 1.2611 -1.8947
-2.5669 0.1490 -0.2514 -0.4301 -1.3318 -1.3569 -0.8994 2.2350 -0.3275 -0.9175 -2.9057 0.7563 -0.3753 -0.2372 -1.2860 -2.5632 -1.4191 2.3345 -0.0522 -3.1545 -0.1213 -1.6110 3.6954 -3.1109 -0.7744 -4.4566 2.9688 3.8222 0.8805 -1.0275
-2.7281 -0.6745 -0.6498 -1.4432 -1.4978 -2.0350 -1.0147 1.7249 -0.7559 -1.2357 -5.4794 -0.1499 -0.4416 0.0780 -1.7209 -4.1555 -1.9586 2.2719 0.0717 -3.5222 -1.2734 -3.1645 -0.0511 -3.9911 -1.9025 -5.6490 0.8105 1.0555 -2.5055 -0.4861
-2.7385 -1.4421 -0.9641 -2.9333 -1.9042 -1.4753 -1.4177 0.6356 -0.9085 -1.9904 -5.0889 -1.1155 -1.3202 -0.7015 -3.7363 -5.2655 -3.1609 1.0998 -1.3442 -5.3264 -3.1250 -4.3872 -2.0785 -5.8046 -4.7609 -6.7126 -2.2441 -3.0967 -5.6965 -2.8188
-2.1816 -2.2337 -0.6817 -2.7568 -2.1734 -0.4464 -1.6126 0.3093 -0.7538 -2.9969 -2.9311 -1.5560 -1.8615 -1.6454 -6.3115 -3.9661 -3.6146 -0.4452 -3.8078 -8.1939 -4.3480 -3.5631 -1.3820 -6.8417 -6.6286 -7.8419 -3.0350 -4.0983 -5.4301 -5.4742
-1.5186 -2.5118 0.0700 0.1872 -1.9258 -0.2995 -0.9685 0.8693 -0.5519 -2.8611 -2.9367 -1.0100 -0.8974 -1.9846 -7.0448 -2.0832 -3.6321 -0.8441 -4.9707 -8.4137 -4.2642 -2.7428 -0.5868 -6.2635 -5.9861 -9.5366 -2.0194 -2.2913 -3.2289 -5.1219
-1.7728 -1.8302 0.7776 3.4289 -1.2185 -0.3654 0.1116 1.5781 -0.2230 -1.3715 -4.2159 0.6895 0.5615 -2.0058 -6.0542 -1.9128 -3.2666 0.1676 -3.9494 -5.8832 -2.4177 -3.3130 -1.3972 -5.0330 -5.1443 -10.1326 -2.1486 -1.8672 -3.3909 -3.9581
-2.0917 -1.1839 1.1826 4.5915 -0.6110 0.3715 0.6549 2.4025 0.2258 -0.2069 -3.2841 2.4907 1.0491 -1.8207 -5.2136 -2.9840 -2.1553 1.1172 -2.6062 -4.3238 0.2064 -3.5767 -2.3699 -4.0730 -5.6593 -8.2306 -3.4500 -2.9415 -5.6637 -4.8416
-1.2324 -1.0096 1.5928 5.2821 -0.3432 1.5424 0.6371 3.7966 0.7162 -0.0426 -1.0794 3.7686 1.0326 -1.3233 -4.6097 -3.7432 -0.2005 1.3153 -2.2557 -3.6493 2.3428 -2.1832 -0.8832 -3.2886 -5.2237 -4.9552 -2.8994 -1.8705 -5.5027 -5.8096
-0.4158 -0.3791 2.2492 7.0350 -0.1833 2.5494 0.5785 5.5181 1.4688 0.1828 -0.2072 5.3307 1.3846 -0.9202 -3.2386 -3.7306 2.5893 1.4351 -2.0846 -0.6666 3.7109 0.2174 3.0091 -2.4603 -2.6632 -3.3328 0.1808 1.3510 -1.9520 -5.1442
-1.0834 0.3576 2.7173 8.3447 -0.0991 2.7250 0.2991 6.2696 2.3020 0.6947 0.3175 6.7518 1.7995 -0.8777 -1.4481 -3.2388 5.0955 1.7467 -1.4081 3.4531 3.7964 2.0673 5.4505 -1.7468 -0.9060 -5.4623 2.5910 2.7133 0.3302 -4.7700
-2.1418 0.4255 2.6706 8.7746 -0.2026 1.5585 -0.0558 5.3416 2.5190 0.7792 1.5324 6.9122 2.5420 -0.6716 -0.3140 -2.5369 5.6039 2.2308 -0.4376 4.9459 3.1251 2.2657 3.7453 -1.1190 -1.2578 -8.4720 2.5550 1.1922 -1.3752 -4.9298
-2.1292 1.0005 2.4039 9.6545 -0.4368 0.1164 0.3850 4.0789 2.0518 0.7547 1.7023 7.0977 4.1415 0.0708 0.2197 -2.1130 4.5058 2.8916 0.8806 4.5278 3.8600 1.8476 0.9722 -0.1992 -0.8892 -7.5483 2.2190 0.2334 -3.2853 -3.3502
-1.5240 2.1442 1.9488 10.3671 -0.7046 -0.0831 1.0659 3.5873 1.3370 1.0484 0.8832 8.2615 4.8408 0.6754 0.9796 -2.2485 3.3630 2.9198 2.2620 4.6735 5.5067 2.7555 1.5900 0.8710 0.9061 -4.2141 3.0605 1.5908 -1.6465 -0.9688
-1.3812 1.5766 1.1680 9.3958 -0.8151 0.8125 0.6330 2.8743 0.5115 0.9893 1.3079 8.0015 3.1497 0.3520 1.6146 -2.3533 1.8984 1.8865 2.5242 3.6930 5.1053 4.1588 4.3299 1.1743 0.9873 -3.4208 3.9945 3.1755 1.2081 -0.7834
-2.1263 -0.2810 0.4497 7.1949 -0.7429 1.7719 -0.1251 1.4457 -0.2204 0.5310 2.4177 4.6107 0.8914 -0.6401 0.9994 -2.4157 -0.5941 0.6493 1.5116 0.2043 2.5705 3.0899 4.2782 0.1398 -1.3065 -5.0268 4.1038 2.8235 1.0929 -2.3113
-3.8664 -0.5997 -0.1220 5.5016 -0.9331 2.1471 0.1019 0.1982 -0.6157 0.5820 2.4368 0.3309 -0.5668 -1.4268 -0.1455 -3.6268 -2.9263 -0.4182 0.7896 -2.1621 0.1253 -0.9696 0.4944 -1.5645 -3.2336 -7.0312 2.4883 -0.0209 -2.5053 -3.6862
-5.7152 0.0632 -0.9135 5.1720 -1.4613 1.5460 0.3362 -1.0814 -0.8283 1.0217 2.4154 -2.1700 -2.0611 -1.4650 -0.0594 -5.6709 -4.1923 -1.3551 1.2093 -1.1147 -1.5063 -4.8457 -2.7123 -2.4178 -3.8923 -10.0039 -1.1932 -3.6965 -6.3768 -5.2648
-6.3433 -0.4996 -1.5413 4.5975 -1.7094 0.3946 -0.3658 -2.7606 -0.7993 1.0126 3.2358 -3.3726 -2.8745 -0.8783 0.7496 -6.3879 -5.1571 -1.2682 1.8589 0.3521 -2.6342 -5.5096 -1.7936 -1.5942 -4.1610 -12.7439 -3.8831 -4.4027 -6.4129 -6.8442
-6.4614 -1.3906 -1.4972 1.6836 -1.3648 0.0435 -1.0182 -3.5489 -0.2842 0.7689 3.4218 -4.7579 -2.0311 -0.1596 0.7631 -5.5334 -5.6608 0.1199 2.0634 0.4876 -3.0988 -3.6151 1.6355 -0.0243 -3.5430 -12.8161 -2.7879 -1.3485 -2.6609 -7.0058
-7.6494 -1.3412 -1.3983 -2.5361 -0.7050 0.6402 -1.1068 -3.4953 0.3329 0.9128 3.0591 -6.0400 -1.6911 0.5788 0.5283 -5.0461 -5.0420 1.5659 2.2766 1.3023 -2.9367 -2.2392 3.3254 1.1474 -1.6573 -11.7511 -0.4923 1.1798 -0.3296 -6.2754
-9.0189 -1.5061 -1.9401 -5.6818 -0.3450 0.7477 -1.3769 -4.6777 0.5095 0.9955 3.7370 -7.3140 -3.3783 1.4157 0.6907 -5.5216 -5.1888 2.1785 2.4576 2.9114 -3.3151 -3.0039 1.6436 1.9195 -0.2382 -12.1827 -0.6928 0.2570 -2.2986 -6.0349
-8.6070 -2.9446 -2.9241 -7.2742 -1.0359 0.1310 -2.0595 -6.9094 -0.0461 0.3255 3.9515 -9.9774 -5.2578 1.6680 0.1936 -6.2669 -7.7588 1.9752 1.7413 2.9650 -5.1364 -4.7417 -1.0917 1.8686 -0.9051 -13.7030 -2.6055 -2.3313 -5.3625 -6.6124
-6.6510 -5.0471 -3.8666 -7.3148 -2.5436 -0.0321 -2.7435 -7.8923 -1.4166 -0.6019 1.6954 -12.6426 -5.7040 0.9176 -0.6019 -6.9143 -9.9584 1.3971 0.5784 1.8464 -6.6348 -5.2495 -1.5227 0.4352 -2.3811 -15.4057 -3.1382 -3.2933 -5.7187 -7.8478
-5.0241 -6.1127 -4.0227 -5.4858 -3.3090 0.2593 -3.0126 -7.2472 -2.3875 -0.9169 -0.1007 -12.0037 -4.4446 0.4176 0.1730 -6.3095 -8.5256 1.4984 0.6609 2.1407 -5.4184 -3.5483 1.0409 -0.6602 -1.8360 -16.9307 -1.0061 -0.8894 -3.1121 -8.1699
-5.0309 -4.8186 -2.8331 -3.2331 -2.5408 0.2110 -2.5281 -6.3139 -1.4208 -0.8418 1.6577 -9.3794 -1.6627 1.0561 1.4472 -3.9456 -5.2676 2.5934 1.7216 3.5152 -2.4521 -1.2494 3.2003 -0.0230 0.7531 -16.5550 1.8813 2.4522 -0.5895 -6.3002
-6.4493 -2.1746 -1.4068 -2.8138 -1.5432 -0.1474 -1.6374 -5.7463 0.2515 -1.1939 3.9646 -8.5498 0.7143 1.5434 0.4429 -2.4233 -3.6507 3.2188 1.5634 3.3216 -0.0785 -0.8233 1.5237 0.1897 2.2118 -13.2278 2.0432 1.9855 -1.6501 -4.8817
-7.6926 -0.4928 -1.2675 -3.3486 -1.6848 -0.8570 -1.2722 -5.4829 0.2161 -2.1370 3.0112 -8.2935 0.6892 0.8149 -1.9834 -3.1180 -3.2629 2.4144 -0.2545 1.4696 1.4301 -1.6032 -1.7698 -1.3597 1.3035 -9.4713 -0.6662 -1.5323 -4.8033 -6.1368
-7.6150 -0.9893 -1.8384 -1.7594 -2.2969 -2.0497 -1.7596 -5.4832 -1.0819 -3.1667 0.2942 -6.4806 -0.6021 -0.2637 -2.8599 -3.3197 -2.5666 1.0917 -2.0436 0.2160 1.6836 -0.9708 -1.8944 -2.4967 -0.0533 -9.5611 -2.5194 -2.6767 -4.9433 -7.5040
-7.1918 -3.2639 -1.7832 1.3233 -1.9773 -2.5256 -2.4975 -5.5271 -1.7766 -3.5419 -0.9680 -6.1092 -0.9737 -0.8129 -2.1608 -1.9432 -2.8359 0.2012 -2.7721 0.1910 -0.6781 0.1890 0.3454 -2.6380 -1.4393 -14.2795 -2.4750 -1.3408 -2.6057 -7.6106
-7.6549 -4.8190 -1.2926 2.0536 -0.8875 -1.0217 -2.5164 -5.2806 -1.6318 -2.5721 -0.2036 -7.8648 -0.5035 -0.9603 -1.6137 -1.0007 -4.3868 -0.0740 -2.5594 0.5431 -3.6981 -0.7364 0.4759 -3.2497 -3.5743 -18.1098 -2.8262 -1.6961 -2.9867 -8.3266
-8.2590 -2.9742 -1.0397 0.4702 -0.2631 1.2566 -1.4954 -4.9703 -1.0329 -0.5754 1.3662 -6.8251 -0.3946 -0.7779 -1.0779 -0.4074 -4.1808 0.4109 -1.6440 1.3360 -3.0882 -2.2388 -1.4433 -3.2149 -4.2244 -15.9770 -3.2403 -3.2296 -5.6326 -8.5428
-8.2449 0.6562 -0.8702 -0.1159 -0.3791 1.5393 -0.5247 -4.6983 -0.1267 0.8716 2.3719 -2.8864 -0.3807 -0.2781 0.0706 0.7644 -1.2795 1.2814 -0.7056 2.3927 0.6664 -1.5837 -2.0774 -1.5522 -1.9274 -11.4422 -2.1504 -3.0749 -6.1561 -6.5823
-8.2576 1.9872 -0.5567 -0.0438 -0.5063 -0.6854 -0.6431 -3.4920 0.3160 0.8316 2.1266 -1.2148 0.8258 -0.0913 0.7881 0.6196 1.2979 1.5277 -0.7549 2.3576 2.8576 0.2414 -0.9879 -0.6036 -0.2425 -10.3986 -0.9642 -1.9819 -4.5940 -5.3532
-8.1104 0.8530 -0.3096 -1.4227 -0.3988 -2.6248 -1.1253 -1.2614 -0.1161 0.2125 1.5270 -1.6500 2.6792 -0.6310 0.4339 -1.5206 2.1622 1.1663 -1.4629 1.4607 2.3907 1.6099 0.1505 -1.0442 -1.3024 -11.1398 -0.5116 -1.0398 -2.8992 -5.9906
-7.0141 0.3354 -0.1730 -2.3068 -0.2500 -2.0589 -0.8287 0.0349 -0.4871 0.2040 2.4802 -0.6535 2.9914 -1.1730 0.1269 -2.6387 2.7339 1.2763 -1.2362 1.6314 2.2024 2.5129 0.3013 -0.9112 -1.5142 -9.3010 0.8290 0.3659 -1.2321 -5.1605
-5.9057 1.2064 0.0975 -0.5500 0.1632 0.1198 0.0143 -0.5857 -0.1727 0.7140 4.9855 0.8438 1.7778 -1.0305 0.5124 -1.5264 3.1142 1.8222 0.1123 2.9084 3.0114 2.2404 -0.8969 -0.6568 1.2475 -5.9176 2.4529 1.4825 -0.5030 -2.9838
-6.1075 1.7561 0.2763 1.5041 0.7143 2.0964 0.4504 -1.9044 0.0270 0.9665 6.0069 0.8764 0.9799 -0.7488 1.0167 -0.7708 2.3966 1.7469 0.9001 3.7294 2.9300 0.5444 -1.9816 -1.4624 3.7587 -4.3614 2.0152 1.6117 -0.7166 -2.8506
-7.4412 1.6298 -0.1728 1.8565 0.6017 2.8363 0.1973 -2.8625 -0.5198 0.8087 4.0770 0.5624 0.6113 -0.8988 1.3738 -1.4961 1.2845 0.9481 0.5164 3.6892 1.7081 -0.5686 -0.6252 -1.6666 3.5917 -5.5549 0.3560 2.0462 0.6454 -4.2656
-8.6004 1.6620 -0.7716 2.2893 0.0295 1.9648 -0.0761 -3.0269 -1.0148 0.8503 2.4357 0.5925 -0.0853 -1.0102 1.5786 -1.9502 0.5709 -0.0175 0.1693 2.7961 0.6745 -0.1445 1.7011 -0.4360 2.3223 -8.5122 -0.5463 2.6322 2.8234 -4.7794
-7.9508 1.1382 -0.5849 3.6466 0.1345 0.5861 0.1128 -2.4558 -0.6718 1.3527 3.3467 0.0054 -0.3931 -0.7564 1.5857 -1.9038 -0.4186 -0.9400 0.4268 0.9567 -0.0501 -0.2446 0.8895 0.3805 1.4228 -10.9344 -1.5016 1.4420 1.7179 -4.7358
-6.0621 -0.3670 -0.2333 3.3980 0.7351 0.3882 0.1760 -2.4677 -0.2108 1.7228 4.3240 -1.3963 -0.5581 -0.5003 1.9895 -2.8402 -1.9673 -1.3662 0.7731 -0.2524 -1.2230 -1.9549 -2.5655 0.3805 0.6535 -10.4670 -2.8058 -0.4047 -1.3210 -4.4688
-5.9539 -0.8397 -0.7307 0.5245 0.7858 1.0630 -0.2740 -3.2610 -0.4412 1.5922 3.8657 -2.9987 -1.4953 -0.1783 2.9401 -3.6878 -3.0631 -0.8376 1.1137 0.7516 -2.5598 -2.8323 -3.6929 0.9944 0.5600 -8.5829 -2.3215 0.4394 -0.5608 -2.6555
-7.9008 0.2257 -1.1913 -1.9065 0.5283 1.3783 -0.5484 -2.8257 -0.6530 1.2147 3.3908 -4.3361 -1.8898 0.3663 3.1434 -2.3637 -3.2833 -0.1028 1.4741 2.4292 -3.1299 -1.3102 -1.0790 1.8805 1.4879 -8.9370 -0.2442 3.3323 3.3361 -0.5762
-9.2052 0.5371 -0.7114 -2.0062 0.5984 1.5770 -0.3167 -1.3849 -0.1237 0.5474 2.6628 -5.3514 -0.8881 0.3765 1.8811 -0.8209 -3.5632 -0.3249 1.4385 2.3075 -2.9469 0.0864 1.3112 1.5065 1.5367 -10.6839 0.5026 4.2072 4.2593 -1.2354
-9.4068 -0.2645 -0.2680 -2.0591 0.6151 2.0991 -0.1305 -1.4149 0.4555 -0.3419 1.1034 -6.2918 -0.2104 -0.3962 0.1848 -1.8892 -4.0315 -1.1126 1.0923 0.5584 -2.8138 -0.5214 0.5105 0.0443 -0.2759 -10.5135 -0.5225 1.9592 1.1156 -3.4683
-9.1436 -0.7016 -0.4974 -3.5655 0.3188 2.2107 -0.3307 -2.4464 0.5249 -0.6430 0.0781 -6.7591 -0.5169 -0.7591 -0.8656 -3.6679 -3.2393 -0.9835 0.9429 -0.8357 -2.8054 -1.1356 -1.6201 -1.2898 -1.8424 -9.1359 -1.2679 -0.6689 -1.9783 -4.2247
-7.8920 -0.7664 -0.7345 -4.9590 0.0338 1.4385 -0.8410 -2.6443 0.5694 -0.3259 -0.6074 -6.0917 -0.7159 -0.1644 -1.1114 -3.4499 -1.0427 0.2594 0.8805 -0.5574 -2.1860 -0.3304 -1.2882 -1.9275 -1.6593 -8.1977 -0.9674 -1.1117 -2.3696 -4.1809
-6.8409 -0.5916 -0.7608 -5.4183 -0.1574 0.4307 -1.3992 -2.7336 0.8084 -0.4231 -1.9856 -5.1336 -0.4011 0.6200 -0.8767 -2.2515 0.5610 1.4290 0.6283 0.8531 -1.0785 0.7396 2.0959 -1.5564 -0.9660 -6.7738 -0.2087 0.8676 -0.0667 -4.4776
-7.1883 0.2165 -0.8257 -5.3441 -0.3206 0.1315 -1.5340 -3.7210 0.9030 -0.7699 -2.3346 -5.0705 0.4159 1.2260 -0.5341 -1.0314 0.4385 2.0312 0.4314 1.8389 -0.2814 1.6897 4.8077 -0.1144 -0.8569 -5.1072 0.6575 3.0566 2.6981 -3.8040
-6.8407 0.8933 -0.9549 -4.0287 -0.6299 0.7508 -1.1042 -5.1965 0.6551 -0.3898 -0.7657 -5.0288 1.1774 1.4360 -0.0278 0.9634 -0.6289 2.2925 0.4462 2.0965 0.5646 2.6185 3.6675 1.3487 -0.4688 -4.5500 1.3228 2.7283 2.3850 -2.6234
-5.2182 0.9083 -1.1988 -1.3819 -1.1525 1.1397 -0.5221 -6.0747 -0.0186 0.0675 0.2581 -3.8610 0.7586 0.5885 0.8228 2.8087 -1.2697 1.8212 0.5364 2.3166 1.6667 2.4522 0.4571 1.4658 0.9860 -4.9127 1.3825 0.5908 -0.5540 -2.4707
-5.1014 1.1573 -1.3091 0.3385 -0.9956 0.4031 -0.0533 -4.8930 -0.8712 -0.2272 0.4830 -2.5932 -0.0045 -0.6267 1.8644 3.4100 -0.4210 0.6860 0.9592 2.6700 1.6756 2.0143 -0.4472 0.6343 2.8082 -5.7563 1.5003 0.7885 -0.8032 -1.1187
-6.2063 1.9811 -0.9937 -0.4792 0.3323 -0.0177 0.4149 -2.2248 -1.3033 -0.1666 2.7119 -2.2638 0.6837 -0.4496 3.1329 4.3852 1.3825 0.3000 2.0465 3.6982 0.7677 3.9485 2.2343 0.9827 4.3717 -6.2551 3.1069 4.8632 3.7213 3.6332
-5.4177 2.6559 -0.8418 -2.4685 1.2277 1.1488 0.8641 -0.9432 -1.3310 0.7839 5.8334 -2.1175 1.8022 0.8285 4.4399 6.3780 2.1271 0.8266 3.1835 5.4704 0.9104 6.9928 4.9137 2.8416 5.6854 -5.4704 5.4164 8.4161 7.9639 8.6883
-3.4067 2.8148 -1.3822 -3.4116 0.5288 2.3973 1.0355 -2.0903 -1.4637 1.3045 5.9213 -1.9630 1.2351 1.3594 4.8225 6.7779 1.1650 0.5269 3.4324 5.8014 1.6904 6.9418 3.5761 3.4104 5.9987 -4.6302 5.4839 6.8994 6.7983 10.1797
-3.2442 2.5126 -1.9267 -2.8857 -0.2837 2.5492 0.7584 -3.9415 -1.5815 1.2060 3.9106 -2.7570 -0.1892 1.1177 4.0294 4.2423 0.0294 -0.5609 2.8403 3.6194 1.3742 3.8609 -0.3188 1.4337 4.5703 -4.8690 2.8316 2.2969 2.0514 8.0144
-4.5726 1.7174 -1.7494 -2.2656 -0.0367 2.5057 0.1007 -4.6827 -1.2753 1.4859 2.9635 -4.2366 -0.4076 1.1664 2.8309 0.9834 -0.2691 -0.6954 1.7003 1.1979 0.1785 1.3426 -1.6631 -0.8858 2.2387 -5.6813 -0.2212 -0.3607 -0.6586 3.6734
-5.0142 0.6467 -1.3142 -3.0830 0.1865 2.6163 -0.5551 -4.3789 -0.8037 1.6452 2.1044 -5.7787 0.0202 0.8929 1.3901 -0.6588 -0.6250 -0.5816 -0.2210 -0.0368 -1.6389 0.0436 -0.0990 -2.6357 -0.0027 -7.2954 -2.8459 -0.5329 -0.1302 -0.7339
-4.9315 -0.1464 -1.4025 -5.5011 -0.3164 2.6663 -0.7343 -4.9088 -0.7085 0.8374 0.2428 -7.9885 -0.5099 -0.4041 -0.3032 -0.9076 -1.9278 -2.0006 -2.3430 -1.2840 -4.2235 -1.7403 -0.6283 -4.9680 -2.2692 -9.4120 -5.4376 -1.2149 -0.5733 -2.9230
-5.9718 -0.4022 -1.8416 -7.9782 -0.7483 2.9808 -0.6373 -6.5771 -0.9237 -0.0442 -0.2718 -10.1316 -1.1949 -1.3442 -1.2330 -1.5008 -3.2748 -3.5898 -3.3437 -2.9641 -5.9106 -3.6870 -4.8700 -6.9908 -4.2767 -10.5456 -7.1166 -3.3565 -4.1976 -3.2715
-7.0545 -0.3168 -1.9256 -8.4731 -0.8289 2.9918 -0.9748 -6.8297 -0.8959 -0.0495 1.2543 -9.9932 -0.8107 -0.8875 -0.5550 -2.7937 -3.3118 -3.2947 -3.0842 -3.6555 -5.6816 -4.3837 -8.1637 -6.7839 -4.8806 -11.3931 -7.1896 -5.1607 -7.3172 -3.1707
-6.4607 0.2392 -1.5875 -6.4712 -1.0139 2.0972 -1.4715 -4.7452 -0.4419 0.3641 2.9020 -7.7807 -0.3570 -0.0555 1.0665 -2.8143 -2.3943 -2.0848 -1.9879 -2.4888 -4.8689 -3.7972 -6.2710 -4.8394 -3.8504 -12.8510 -6.0549 -4.5485 -5.9728 -2.0400
-5.0534 1.6135 -1.0627 -3.6532 -1.0354 1.5578 -1.0606 -2.0798 0.1589 0.6796 4.5023 -5.3035 -0.1369 0.4737 2.2988 -0.3926 -1.5388 -1.0851 0.1696 -0.6544 -3.4803 -2.1528 -0.5873 -2.5226 -2.1597 -12.1038 -3.6749 -1.0711 -1.3842 0.2249
-3.6438 2.8319 -0.2959 -1.8152 -0.5371 2.0160 -0.1036 0.3251 0.6400 0.8902 5.9619 -2.9912 1.3408 1.1160 2.9250 2.3724 -0.6423 0.4653 2.6245 0.0428 -0.6225 0.2721 3.6686 -0.0762 -0.6833 -7.9201 -0.7178 2.6685 2.2754 2.3665
-1.7280 2.4937 0.1781 -0.9341 -0.3325 2.0094 0.0373 2.0409 0.6028 0.8083 5.2649 -1.4495 3.1837 1.5829 3.9062 2.9177 0.1996 1.8085 3.6828 0.1040 1.6835 1.5202 3.0326 1.9342 0.0772 -5.0688 0.3814 2.9558 2.4287 4.1847
-0.5436 1.9355 -0.2377 -0.3951 -0.9042 1.1136 -0.2603 2.3712 0.0317 0.5399 3.0465 -1.5527 2.9368 1.4792 5.0479 1.8336 0.2556 0.9842 3.4377 1.5199 1.7378 0.5648 -0.0313 2.4646 0.0428 -5.7431 -0.7849 0.4000 0.3354 5.5956
-1.7663 3.5378 -0.4721 -0.4183 -1.0733 0.4874 0.2845 2.7831 0.0869 0.6534 2.5040 -1.9299 1.7652 1.4373 4.7135 1.3885 0.1024 -0.8244 3.1001 3.4410 1.7119 0.0735 -0.0472 1.7962 -0.2270 -4.9040 -1.1393 -0.0380 -0.0596 5.7947
-3.7426 5.9044 0.4342 -0.9853 -0.3540 0.1561 1.1028 4.5686 1.2892 0.9740 3.2016 -1.4390 2.2024 1.6214 3.1525 1.7956 0.5131 -1.2141 2.6530 3.2752 2.6819 1.7083 3.4530 1.1421 -0.5045 -1.5099 0.7808 3.2899 2.6432 5.6211
-3.9627 5.9705 1.0954 -1.4465 -0.2924 -0.4982 0.9606 5.4526 2.1616 0.7644 2.2847 -1.8190 2.9803 1.3489 2.5853 1.5906 0.6314 -0.8448 1.9810 2.0509 2.4130 2.8991 5.2016 1.0116 -1.1241 -1.2032 2.7300 5.8196 4.7330 6.3461
-3.0444 4.4586 0.3945 -1.8943 -1.3836 -1.1813 0.1469 3.7436 1.8303 0.1371 0.4933 -3.5964 1.9743 0.8118 3.2379 0.7982 0.0774 -0.8774 1.7583 2.2560 0.8816 2.1111 2.8295 1.0226 -1.5712 -3.3143 2.9420 4.1558 2.9225 6.5046
-2.5941 3.7906 -0.4299 -2.9539 -1.9375 -1.6916 -0.4900 1.7935 1.2305 -0.3032 0.4589 -4.2076 0.7240 0.7142 3.3157 0.5349 -0.2551 -0.4054 1.7547 2.4015 0.5303 1.3590 0.3286 0.6606 -0.8600 -2.3071 2.2914 1.3284 -0.2704 5.2252
-2.1145 3.8154 -0.4182 -4.0676 -1.5126 -2.0679 -0.6362 1.8032 0.8013 -0.4584 1.8034 -2.7869 1.5950 0.8842 2.4725 0.6110 0.0442 0.8134 1.3454 1.0389 1.3658 2.2164 1.5811 0.2346 0.5676 -0.1419 2.3995 1.6736 0.0424 5.1850
-1.0036 4.0446 -0.2558 -3.6870 -1.6071 -1.8330 -0.2252 2.7142 0.3473 -0.3055 2.9867 -1.3544 3.6924 1.1507 2.0843 0.8264 1.1951 1.8968 1.4999 1.3435 2.1228 4.3717 5.5058 0.8266 1.7146 -0.4749 4.0275 4.9617 4.2896 7.3804
-0.7852 5.3492 -0.3453 -1.8892 -2.4198 -1.0856 0.3771 3.0160 0.3047 0.0389 4.3619 -0.9570 4.6786 1.8071 2.7956 2.0449 3.0024 2.8626 3.0353 4.6158 2.9873 6.5726 8.0323 2.5060 2.9172 -0.6206 6.2039 7.9045 8.1222 9.1137
-2.5958 6.9157 -0.3297 -0.6368 -2.6584 -0.7969 0.4962 2.9820 0.6043 -0.2511 5.7965 -0.8181 4.3071 2.2001 3.5790 3.5897 3.8414 3.4900 4.2803 6.4550 3.7524 7.0567 6.5811 3.7102 4.1496 0.1385 6.5270 7.8429 8.0249 9.0706
-4.2126 6.5764 -0.0030 0.0896 -1.9340 -0.9905 0.1684 3.3849 0.5361 -1.1869 5.8761 0.0444 3.8258 1.4047 3.5284 3.9754 3.1749 2.9375 3.7636 4.9741 3.8592 5.9125 3.3867 3.5182 3.9853 -0.5646 4.5774 5.1339 5.2112 7.9198
-2.4848 4.4375 0.6425 1.5938 -0.7421 -0.6489 0.0754 4.2178 0.3635 -1.2345 5.1792 1.6635 3.6927 0.2553 3.3990 4.2515 2.6154 1.8109 2.7427 3.9100 3.9906 5.3926 2.9859 2.8517 2.7982 -0.5677 3.3286 3.4569 3.7118 6.2161
1.4516 2.4626 1.2117 1.5324 0.3271 0.1349 0.3211 5.0084 0.4543 -0.1104 5.1722 2.4715 3.6825 -0.0960 3.7518 5.3605 2.4458 1.0261 2.1056 4.1833 4.0792 5.6647 5.0119 2.1751 2.4306 1.0359 4.0109 4.4457 4.7115 5.2412
3.1705 1.7804 1.0929 -1.5151 0.4904 0.1675 0.4079 5.3898 0.1652 0.5865 4.7798 1.6455 3.5709 -0.3336 3.6640 5.1483 1.5324 0.0030 0.7906 2.3321 3.1587 4.3110 4.3138 0.6602 1.8975 -0.0128 3.6686 4.3648 4.6524 5.3592
1.4988 2.2766 0.5250 -2.7577 -0.2169 -0.2049 0.2655 4.9179 -0.4679 0.5604 3.1919 0.8555 2.6955 -1.0923 3.2070 2.7996 0.3822 -1.4368 -0.9047 -1.3077 1.9831 0.9897 -0.4032 -1.1886 -0.4430 -2.9175 0.9609 1.0375 1.0571 4.7373
-1.2781 3.4957 0.1599 -0.6052 -0.5654 0.5624 0.1013 3.1728 -0.4577 0.7462 2.6698 0.5948 0.7069 -1.4666 3.5561 1.2383 -0.0136 -2.6445 -1.6154 -2.8910 1.1676 -1.9264 -4.4798 -2.0231 -2.7432 -2.6590 -1.4699 -2.1966 -3.1999 3.0520
-4.1331 4.9672 0.0106 -0.2660 -0.1668 1.6982 -0.0838 1.2170 0.0772 0.7561 4.0388 -0.7173 -0.9976 -1.3120 3.7470 1.6867 -0.1853 -3.9016 -2.0729 -2.8319 -0.7120 -3.1503 -4.7081 -2.7696 -3.6700 -0.7788 -2.1682 -2.9952 -4.6462 1.8245
-6.0075 5.7411 -0.0330 -2.0107 -0.0896 1.1330 0.0724 1.0600 0.1998 0.1664 4.4152 -2.4574 -0.9739 -1.6329 2.0191 1.6376 -0.6258 -5.3127 -3.0444 -3.9742 -3.5274 -3.3800 -3.1079 -4.3531 -5.0466 -1.1942 -2.3522 -2.7602 -3.9406 0.9799
-4.8088 4.8982 -0.1037 -1.8308 -0.7279 -0.1652 0.8876 1.9421 -0.1560 0.1023 2.8539 -3.0290 -0.5176 -1.9542 -0.1080 0.3675 -1.0280 -5.9659 -3.0314 -4.8920 -4.9180 -3.5116 -3.0051 -4.7630 -6.6943 -2.4771 -2.6161 -2.6006 -3.3391 -0.0642
-2.1042 3.3821 -0.7045 -1.5912 -1.2425 -0.0139 1.5737 1.0497 -0.5829 0.9614 2.3256 -3.5701 -1.5238 -1.1265 0.1168 0.4944 -1.6045 -5.8023 -1.5215 -3.3418 -4.5474 -3.9676 -4.9110 -3.0933 -6.0828 -2.9583 -2.9761 -2.5905 -3.6487 -0.4527
-1.4639 3.0582 -1.5516 -3.4627 -1.2413 0.7389 1.4868 -1.0468 -0.8905 1.5319 3.7032 -4.7196 -2.7375 -0.0574 1.9282 2.6520 -2.7930 -5.4580 -0.2720 -1.6658 -4.0111 -4.2472 -6.2688 -1.6594 -3.6792 -3.8653 -3.9216 -2.5734 -4.2682 0.4011
-2.2030 3.4648 -1.6716 -3.7647 -1.0763 0.6231 1.2636 -1.6886 -0.8936 1.4327 4.1970 -4.5952 -2.1892 0.0112 2.8655 4.0702 -3.9329 -4.9031 0.1523 -1.8526 -3.4760 -3.3099 -4.4317 -1.4399 -1.8547 -5.2444 -4.5989 -1.4117 -3.6696 1.6033
-1.9236 2.7094 -1.3434 -1.4680 -1.0197 0.1904 1.0985 -1.5493 -0.7335 1.3915 3.1446 -3.3818 -0.9003 -0.1309 3.2039 3.1465 -4.1191 -4.2621 0.7221 -1.4847 -2.7181 -2.0985 -0.5909 -1.3357 -1.1021 -6.5966 -3.6965 0.7658 -1.7805 1.4207
-0.9699 0.9914 -1.4266 -0.5706 -1.3950 -0.6585 0.3438 -2.1166 -0.7391 1.1129 2.4437 -3.5781 -0.3459 0.2144 3.8176 1.2680 -3.8657 -3.9299 1.0438 0.0747 -3.0050 -2.9729 0.7930 -1.5428 -1.3275 -8.5933 -2.5258 1.1793 -1.4697 -0.6333
0.0199 0.0803 -1.5943 -2.0175 -2.3738 -2.5369 -0.4542 -2.1698 -0.7476 -0.1900 1.6796 -4.7997 -0.0628 0.2093 3.1167 0.3448 -4.0050 -3.4576 0.1814 -0.5836 -4.0891 -5.2409 -1.6502 -2.3119 -2.4773 -9.4592 -2.6550 -0.7474 -3.7739 -2.1969
1.4099 0.6488 -1.4488 -3.5650 -3.2896 -3.6784 -0.1700 -1.4405 -0.5991 -1.6381 0.1184 -4.4888 0.3697 -0.3184 0.9605 1.1382 -3.8522 -2.2873 -0.7600 -3.1496 -3.1477 -5.5615 -3.5222 -2.0464 -3.0424 -5.8313 -2.5007 -1.3210 -5.0163 -1.3277
2.8574 1.7827 -1.3062 -4.3316 -3.4667 -2.7375 0.5849 -1.3987 -0.4147 -1.8017 -0.2193 -2.7736 1.0792 -0.2449 0.2331 3.0008 -2.5698 -0.6794 -0.2824 -3.1065 -0.3078 -3.0887 -1.1280 -0.1418 -1.9303 0.1236 -0.4400 1.4432 -2.4279 0.5969
4.1003 2.0895 -1.0863 -3.5461 -3.2067 -1.8817 0.5247 -1.5241 -0.1115 -1.0239 0.6582 -1.6046 2.3975 0.8312 1.4084 4.2564 -1.0534 0.9397 0.9993 -0.5700 0.5271 -0.1232 3.0404 1.7558 -0.1608 2.3036 2.0681 4.7201 2.0109 2.4978
5.3716 1.4445 -0.6581 -1.0456 -2.9190 -2.6611 -0.0480 -0.5236 0.1257 -0.3821 0.2262 -1.1141 3.3302 1.9648 2.2918 4.2554 -0.7477 2.2723 1.9501 0.5604 -0.9013 1.3295 4.4017 2.5100 1.3558 0.6586 3.1722 5.5755 4.8291 5.1463
6.5561 0.9368 -0.4002 0.0523 -2.4670 -3.3713 -0.2186 1.1022 -0.0834 0.0512 -1.0448 -0.1946 3.0551 2.2122 2.7062 4.1058 -1.6568 3.0903 2.6064 0.3867 -0.5440 1.1173 2.7774 2.2786 2.3552 0.8397 3.4280 4.5921 4.4891 7.1150
8.0357 0.4078 -0.2681 -1.7587 -1.9908 -3.2853 -0.1967 2.4744 -0.3265 0.3973 -1.9504 1.1198 2.9070 1.6929 3.2494 3.9854 -2.4442 3.3174 2.8190 1.0435 2.0151 0.4718 1.5858 1.3088 1.7511 3.9472 4.1944 3.8590 2.3924 6.1607
9.6187 -0.9732 -0.0565 -2.9262 -1.8432 -3.7543 -0.4430 3.0254 -0.2172 0.3792 -3.4319 1.2731 3.3970 1.1728 3.0857 2.7349 -2.3033 2.6392 2.0666 1.9259 3.0330 0.6516 2.4058 0.3486 -0.3814 5.4512 4.8621 3.8833 1.4916 4.2718
9.1578 -2.3541 -0.1796 -2.0085 -1.6714 -4.2324 -0.6902 2.1062 -0.3000 0.1111 -4.4492 -0.9323 3.0601 0.8838 2.4060 0.8888 -2.1499 1.1056 1.1122 2.1773 1.6874 1.1783 3.2979 0.2979 -1.6307 3.3796 3.8497 3.4358 2.2582 3.9921
6.5632 -2.9432 -0.7402 -1.9393 -1.2383 -3.3602 -0.7282 0.3222 -0.8726 -0.2146 -3.3996 -4.0960 1.7990 0.3957 2.1783 0.2721 -3.0531 -0.1307 1.0729 1.9019 0.5718 0.3887 1.9896 0.3700 -1.2467 0.2663 1.6066 1.7087 1.9719 3.4934
5.0444 -3.0006 -1.1590 -2.6870 -1.3787 -2.5984 -0.6051 -0.2476 -1.5454 -0.9371 -2.3404 -5.5708 1.1363 -0.3553 1.7153 1.1633 -4.0298 -0.2560 1.4530 0.5565 0.6737 -1.4158 -0.8214 -0.5603 -1.1828 -1.2134 -0.0123 -0.1791 -0.2649 1.8888
5.5161 -1.7490 -1.1804 -1.8237 -2.4620 -3.1961 -0.1561 1.4517 -2.0061 -1.8841 -2.4807 -4.8094 1.6462 -0.8414 0.8125 2.8220 -3.1576 0.4224 1.4742 -0.8153 1.2830 -1.4739 -1.8261 -1.1918 -1.6615 0.1506 -0.1659 -0.1808 -1.4454 2.2739
6.0708 0.8998 -0.9833 -0.5684 -3.3867 -3.3644 0.5100 3.7815 -2.0200 -2.0304 -1.6587 -3.0531 2.7368 -0.8791 1.0135 4.6999 -0.7695 1.3788 1.6117 0.2817 2.1623 1.1642 0.5112 -0.1225 -1.1560 3.6690 0.8460 2.0754 0.3650 4.6534
6.1316 2.4987 -0.7129 -0.4554 -3.3051 -2.3472 0.9375 4.4404 -1.6661 -1.1855 0.1490 -1.2270 3.6155 -0.7125 2.1439 5.6020 0.7210 1.7808 2.0678 2.7441 2.6365 3.4735 3.1388 1.0356 -0.4389 6.1970 1.9240 4.2679 2.6385 5.0568
5.8673 1.9188 -0.5432 0.2918 -2.5307 -2.0093 1.0716 3.5632 -1.5800 -0.2941 0.4397 -0.0989 3.7170 -0.1921 2.5409 4.7569 0.4568 1.0795 2.2398 3.1146 1.9320 2.8474 2.5687 0.9510 -0.8181 5.6095 1.8326 4.1200 2.4393 3.7129
5.3430 0.8632 -0.5495 1.8074 -1.5964 -2.9240 1.0245 3.0605 -1.8259 0.2266 -0.6713 -0.2976 3.1496 0.6549 2.8875 3.9646 -0.1579 0.3497 2.3397 1.6341 0.8258 0.9116 0.0873 1.1952 -0.6123 3.5343 1.0170 2.5555 0.8243 4.2982
5.5944 0.5918 -0.5862 1.8119 -1.1623 -3.7616 0.6827 3.3934 -1.7012 0.6223 -0.9786 -0.9061 2.4772 0.7848 4.5339 5.0837 -0.2012 0.7444 2.8999 1.1593 0.3020 0.4316 -0.4852 2.4119 1.3227 2.4186 1.0697 2.2551 0.6027 6.0221
6.5031 1.1435 -0.6845 0.8477 -1.7348 -3.9208 0.2847 3.0861 -1.2507 0.8390 0.2820 -0.3877 1.8677 -0.2928 6.1213 6.6603 0.2140 1.5443 3.2763 2.3928 0.1783 1.1370 1.5630 3.0256 2.6878 2.6921 2.0351 3.7142 2.1449 5.6591
6.4315 1.8595 -0.9522 0.7773 -2.3865 -3.8258 0.2654 1.5068 -1.2036 0.8102 2.2825 0.3833 1.1444 -1.3633 6.0879 6.6447 0.8097 1.4456 2.7728 3.9561 -0.2809 1.0549 2.9791 2.6851 1.9783 3.0548 2.1313 4.5830 3.3133 4.1810
5.5828 1.2877 -1.1549 0.5773 -1.8998 -3.9845 0.3677 0.2081 -1.5256 0.7251 3.2478 -1.0309 0.4852 -1.4618 5.3953 5.4681 0.7415 0.3398 2.0965 4.8632 -1.6191 -0.3062 0.7391 2.1969 0.3551 2.2376 0.2966 2.8382 2.1499 3.8445
5.2319 -0.3285 -1.0963 -0.4384 -0.9550 -4.3162 0.2544 0.4692 -1.6507 0.7066 2.2093 -3.6729 0.3285 -1.0355 5.4024 4.2630 -0.1642 -0.7917 2.3547 5.5708 -2.6513 -1.7008 -3.2373 1.8776 -1.4093 1.3177 -1.7761 -0.0539 -0.3983 3.5407
5.2354 -0.4694 -0.8604 0.2018 -0.7541 -3.7330 0.5023 1.4068 -1.4983 0.9165 1.2525 -3.1535 0.9263 -0.4957 5.7452 3.9316 -0.0986 -0.9857 3.4558 6.7086 -1.0680 -1.7090 -3.5457 2.5112 -2.7800 2.3490 -1.4485 -0.4711 -0.7825 2.3528
5.4071 1.2950 -0.4935 3.3394 -1.1050 -1.7423 1.3944 1.7771 -1.2563 1.2340 2.1844 1.0296 2.1541 0.1082 5.5053 5.3217 1.6808 -0.2753 4.2804 7.1670 2.2170 -0.2816 0.6896 4.4099 -2.4786 4.2446 0.7358 2.0614 2.2124 2.1952
5.8269 2.5478 -0.2136 5.6308 -1.5730 0.0171 1.8481 1.5321 -1.0512 1.0149 3.2403 3.5886 3.1951 0.1813 4.8764 7.2014 3.0809 0.6109 4.0995 5.8776 3.6272 1.1803 3.9296 5.8362 -1.0679 4.5197 1.7654 3.9448 5.0420 3.7461
5.6015 2.2531 -0.4133 4.7308 -2.1638 -0.3190 1.1884 1.1330 -1.2236 0.1985 2.7710 2.0021 3.1825 -0.6970 4.4018 6.8521 2.8797 1.0898 3.0908 4.0003 2.6131 1.4738 2.6325 5.1797 -0.9672 3.6813 0.8130 2.9255 4.4191 4.6772
4.5973 1.1434 -0.8652 2.4194 -2.3799 -2.6241 0.2754 1.0810 -1.8575 -0.4429 1.0232 -0.0361 2.5101 -1.7671 3.6210 3.8269 2.0859 0.6297 1.6668 2.5466 1.3213 0.6212 -0.3761 2.8139 -2.7414 2.9193 -0.8436 0.5579 1.5909 3.3295
3.9900 -0.4219 -0.8506 1.0689 -1.8011 -4.9938 -0.2277 1.7270 -2.0630 -0.5663 -1.7968 0.0793 2.1413 -1.9714 2.4602 0.5853 1.3739 -0.6678 0.4575 1.5720 0.5065 -0.1288 -1.1430 0.5979 -4.5318 1.6050 -2.4060 -0.6947 -0.1912 0.7184
3.5025 -1.3872 -0.3420 0.8440 -1.1196 -5.2046 -0.5894 2.6664 -1.1462 -0.4094 -3.9294 0.8752 2.1156 -1.3031 2.3323 -0.1979 1.1347 -1.2749 0.5231 2.0511 -0.2435 0.5175 0.8798 0.5939 -4.8601 0.1814 -3.0138 0.0353 0.3617 -1.3572
1.8472 -0.3355 -0.0552 0.7994 -1.0283 -3.3023 -0.8024 2.9263 -0.0313 -0.1898 -3.0348 1.1710 2.0937 -0.6190 3.4998 1.5486 1.7006 -0.4682 1.9701 3.5249 -1.2159 1.2230 3.1459 2.2666 -4.1005 -0.2556 -2.6318 1.1111 1.6025 -2.1826
-0.2239 1.5449 -0.2785 0.1849 -1.2153 -2.1988 -0.5482 2.3477 0.1084 -0.1666 -1.4040 0.9084 2.3366 -0.3960 3.9624 2.8199 1.9396 0.0717 3.2142 3.2662 -2.1813 -0.4802 2.5465 2.6955 -3.8043 -0.5496 -3.3217 -0.0524 0.7712 -2.2820
-0.9167 1.9253 -0.6830 -0.9476 -1.4265 -3.5600 -0.0127 2.0059 -0.5261 -0.2696 -2.9483 -0.4126 3.0746 -0.4159 3.0221 1.3849 1.1602 -0.6347 3.2534 1.6619 -2.2055 -2.8362 -0.4056 1.5982 -4.8684 -0.8704 -5.0692 -2.4922 -1.7880 -2.5021
-0.3789 1.0161 -1.1892 -1.7030 -1.8610 -5.4114 0.3310 2.0712 -1.3491 0.0898 -5.6729 -2.4015 3.4887 -0.5411 2.6394 -0.8931 0.3640 -1.2688 3.0236 1.9940 -1.5101 -2.1051 -1.2787 1.4621 -5.7850 -0.0257 -4.5485 -2.0080 -1.8928 -2.8742
-0.1116 0.3955 -1.8089 -1.9904 -2.1647 -5.4883 0.3323 1.3768 -2.0987 0.7403 -5.1132 -3.8628 2.5855 -0.8475 3.5404 -1.2811 -0.6538 -1.1638 3.0556 3.6972 -1.4869 0.3056 1.3537 2.3059 -4.3669 0.9432 -1.7495 1.7077 1.4409 -2.8234
-0.4752 0.3035 -2.0603 -2.9975 -1.9157 -4.1825 0.2251 0.5444 -2.2995 0.6059 -2.4512 -4.8561 1.2209 -1.1039 3.7731 -0.3914 -2.7736 -1.1279 2.4374 3.6034 -2.0462 0.2701 3.0367 2.2683 -1.8403 0.0929 -0.9669 3.4736 2.9792 -2.1427
-0.7173 0.0812 -1.8707 -4.4681 -1.5642 -3.2049 0.1818 1.0130 -2.0808 -0.2361 -1.8751 -5.9118 0.9701 -1.0145 2.7686 -0.0735 -4.6467 -1.3768 1.3314 2.5501 -2.6579 -1.8489 0.8129 1.8345 -1.5042 -1.9352 -3.1152 0.5520 0.0493 -0.8486
-0.9502 -0.6156 -2.0295 -4.3440 -1.3926 -3.0656 0.0219 0.9412 -2.4447 -0.4443 -3.5892 -6.8078 1.1517 -0.8196 2.4904 -0.0976 -5.0002 -1.5595 1.2219 3.2180 -4.0117 -2.7026 -1.9177 2.2330 -3.1096 -3.2246 -4.2456 -2.9782 -2.5482 0.6613
-1.9886 -1.5661 -2.7342 -2.7952 -1.0027 -2.8344 -0.3539 -1.6883 -3.3846 0.1263 -4.9787 -7.5332 0.3341 -0.8490 3.3937 0.4575 -4.9534 -1.7274 2.0598 4.3484 -5.6030 -1.5759 -0.9987 2.7791 -3.6870 -2.9322 -2.3699 -2.4146 -0.7856 1.1460
-3.2501 -2.2856 -3.3173 -2.5762 -0.5343 -2.1933 -0.6853 -4.4558 -3.9898 0.2536 -5.0589 -8.2042 -0.7371 -0.9171 3.8558 1.3863 -5.3792 -1.9394 2.4250 3.5187 -5.7282 -0.3878 2.3437 2.9660 -3.0676 -1.7903 0.0569 0.8665 2.6225 0.0732
-3.3394 -2.6555 -3.6001 -4.1687 -0.7076 -2.2380 -0.8211 -4.6294 -4.3283 -0.4864 -4.7745 -8.6150 -0.9544 -1.0268 3.4415 1.8845 -5.5814 -2.2800 1.9637 1.7750 -5.0220 -0.6315 3.4968 3.0006 -3.4118 -1.2716 0.3166 2.0039 3.1983 -1.5708
-2.8434 -2.5509 -3.8515 -5.5174 -1.5835 -3.3741 -0.9133 -3.5177 -4.6882 -1.4156 -5.1676 -8.8593 -0.8996 -1.5418 2.9151 1.1459 -5.2206 -3.1028 1.2146 0.8416 -5.4871 -2.3301 0.6851 2.0448 -5.0949 -1.7123 -1.7799 -0.5576 0.1277 -3.0222
-3.5828 -1.3537 -4.0285 -6.4264 -2.3981 -4.4036 -1.0255 -3.2480 -4.5256 -1.8265 -6.1299 -8.4467 -1.1435 -1.9881 2.6470 -0.3767 -4.7531 -4.0587 0.6312 0.3365 -6.2763 -4.0961 -2.6336 0.3078 -6.7594 -2.3180 -4.3869 -3.6846 -3.4653 -3.8501
-4.9800 0.7061 -3.9651 -7.7572 -2.5477 -4.6134 -0.9240 -3.3488 -3.8348 -1.3446 -6.5693 -6.4867 -1.0711 -1.6191 2.8728 -0.4360 -4.3566 -3.9664 0.7689 0.1819 -4.9328 -3.8550 -2.2179 0.1313 -7.3032 -2.6686 -4.8394 -3.4300 -3.1276 -2.8986
-4.5887 2.1154 -3.5168 -8.1986 -2.2242 -4.3505 -0.4362 -2.3676 -3.2821 -0.3836 -5.5360 -4.3928 -0.3776 -1.0453 3.4264 1.7956 -4.0053 -2.6622 1.4766 0.7370 -2.2111 -1.5924 1.1655 1.7598 -6.4404 -2.3406 -2.2598 0.5910 1.5678 -0.0149
-2.2671 2.0940 -2.5895 -6.6396 -1.8375 -3.5574 0.0276 -0.2785 -2.7821 0.0290 -3.0264 -4.1950 0.0441 -1.0471 3.6121 3.8751 -3.9837 -1.6004 1.4837 0.6676 -1.1181 -0.4021 2.6530 2.6429 -5.3194 -0.9294 0.4249 3.9875 4.9357 2.4165
-0.3379 1.3143 -1.4645 -4.8168 -1.3020 -2.4291 -0.1128 1.7929 -1.9586 -0.1626 -0.6188 -4.5989 -0.1393 -1.1035 3.5316 3.6642 -4.4136 -1.7376 0.3892 -0.6115 -2.0246 -2.2011 -0.0729 1.8483 -5.9080 0.3350 -0.0388 2.7185 2.6606 2.1226
0.0676 0.6118 -0.7080 -4.8230 -0.6374 -2.1056 -0.5452 2.6792 -1.2171 -0.0463 -0.3459 -3.8679 0.2399 -0.9180 3.5615 1.9983 -4.6787 -2.2094 -0.5820 -1.1582 -2.9724 -4.6042 -3.6140 0.5601 -8.1313 0.2657 -2.1285 -0.8201 -1.7428 0.1954
-0.3499 0.4807 -0.7198 -6.3297 -0.5026 -2.7031 -0.5878 1.8246 -1.0569 0.4084 -1.8975 -3.4552 1.3005 -0.9961 3.2379 0.7187 -4.2070 -1.8780 -0.5801 -0.4146 -3.3808 -4.7543 -3.4019 -0.3245 -9.5827 0.3269 -1.9499 -1.2536 -2.6159 -0.5317
-1.0338 0.9564 -1.3625 -7.2611 -1.2566 -3.0888 -0.7313 0.2606 -1.1603 0.5377 -3.4168 -4.6753 1.3279 -1.0079 2.9845 0.3642 -3.6542 -0.9557 0.0279 -0.1363 -4.1150 -3.3979 0.1837 -0.3498 -9.1766 1.2450 0.0039 1.1261 -0.4130 0.0102
-1.3975 1.2857 -1.8653 -6.5900 -2.3199 -2.7919 -1.6919 0.0244 -0.9180 0.4372 -4.3232 -6.1742 0.3091 -0.4333 3.8597 0.0964 -3.8122 -0.4201 0.5848 -0.6488 -5.0555 -2.9646 2.1334 -0.0686 -8.5748 0.8642 -0.1371 1.1002 0.0349 -0.8569
-0.6102 1.0068 -1.5694 -5.2582 -2.9813 -1.9385 -2.4929 1.4177 -0.4307 0.3855 -4.4652 -6.2075 0.2351 -0.0770 4.3062 -0.9272 -3.9219 -0.6826 0.3771 -1.2993 -4.8318 -3.8860 -0.4014 -1.2547 -9.2992 -0.5649 -2.6454 -2.6261 -3.0960 -3.8782
0.2657 0.9495 -0.9539 -3.9153 -3.2397 -1.0981 -2.1766 2.4497 -0.3429 0.0938 -3.6360 -4.5352 0.8883 -0.4775 2.4191 -2.1657 -3.5653 -1.2665 -0.8102 -2.5809 -3.5037 -4.4472 -3.9566 -3.8254 -10.6953 -0.4741 -4.4017 -5.5829 -6.3434 -6.4859
-0.8602 1.6399 -1.0750 -2.7789 -3.4538 -1.6672 -1.9546 1.6768 -0.8140 -0.4166 -2.9240 -3.0509 0.2269 -0.7514 0.4780 -2.3831 -4.3341 -1.3691 -1.7567 -4.1271 -3.4511 -3.5739 -3.9329 -5.3107 -11.2002 -0.3961 -4.6329 -4.8511 -5.8488 -6.3636
-2.9517 2.0591 -1.8455 -3.0279 -3.5345 -3.6914 -2.7822 0.2280 -1.3670 -0.7569 -2.6201 -3.9844 -1.3584 -0.5010 0.9035 -1.8262 -6.6268 -0.8722 -1.6232 -4.5310 -5.2957 -2.3434 -1.4495 -4.9014 -10.4003 -2.6089 -4.7368 -2.7938 -2.7039 -4.0380
-3.1321 1.5448 -2.1415 -4.2417 -3.3229 -5.0469 -3.3478 0.5357 -1.6991 -1.1068 -1.6966 -5.9850 -1.9502 -0.4498 1.6066 -1.9111 -7.9560 -0.6949 -1.7019 -4.0667 -6.2435 -2.0393 -0.9550 -4.0761 -9.3374 -4.1382 -4.7164 -2.5230 -1.3185 -1.9843
-1.8237 0.9323 -1.7310 -3.8427 -3.2869 -4.7547 -2.8660 3.0424 -1.9081 -1.7757 -1.7209 -5.9272 -1.6174 -0.6569 1.0235 -2.5448 -6.6864 -1.1275 -2.4527 -3.5171 -4.9552 -2.0632 -2.9573 -3.2877 -8.5729 -2.4654 -3.5020 -3.3124 -2.5747 -1.7831
-1.5120 0.7150 -1.4540 -1.8393 -3.6459 -3.9381 -2.5639 5.0610 -1.9592 -2.4310 -4.7902 -4.3472 -1.4887 -0.4277 1.2390 -2.3785 -4.2255 -0.7975 -1.9782 -2.3179 -3.3092 -1.1625 -3.5745 -1.8647 -7.1191 0.0303 -0.7698 -2.1882 -2.6251 -2.1929
-2.1188 0.5944 -1.5057 -0.8644 -3.7421 -3.2756 -2.9141 4.7083 -1.6389 -2.7608 -7.8947 -3.5098 -1.5169 0.1130 2.6381 -1.3278 -2.4682 1.1218 -0.0810 -0.4810 -2.3101 0.2993 -0.5269 0.0315 -4.5300 1.2613 2.4925 1.4661 0.6132 -0.8958
-1.9170 0.9822 -1.3891 -1.6219 -3.3289 -2.8160 -2.9005 3.6925 -1.0589 -2.8807 -6.8960 -2.9700 -1.2097 0.3690 3.1862 -0.1093 -1.3892 3.4192 1.1394 1.0877 -1.2396 0.8032 3.7602 1.8130 -2.0843 1.8317 4.5286 4.8320 4.3747 2.1973
-0.9417 2.1927 -1.2808 -2.8127 -3.0725 -2.9741 -2.4605 3.4869 -0.6521 -2.6252 -3.5523 -2.0927 -0.9212 0.5377 3.4092 1.1124 -0.1623 4.4942 1.4980 2.2928 -0.5587 -0.1979 5.0495 2.9965 -0.8760 2.2231 4.4767 4.9720 5.0301 4.5666
-0.6066 3.0811 -1.6311 -3.4024 -3.0895 -3.3766 -2.3515 3.0300 -0.6913 -1.5685 -2.0186 -2.3620 -1.3104 0.8957 4.9221 2.0516 0.7447 3.8795 2.2252 3.0885 -1.6718 -1.8861 2.2222 3.0803 -0.6785 1.8379 3.0732 2.1232 2.3797 4.3355
-1.1460 2.9103 -2.0878 -3.2618 -2.7096 -2.9789 -2.1515 2.1757 -1.1019 0.0170 -2.1380 -4.2314 -2.3144 0.8998 6.2279 2.4553 0.5998 2.3781 2.8787 2.9885 -3.9117 -3.2610 -1.0687 2.3659 -0.7492 0.7197 1.8318 -0.4233 -0.0450 2.9927
-1.5482 2.6325 -2.1435 -3.2103 -1.9296 -2.1115 -1.2707 2.0915 -1.5384 1.0358 -1.7292 -6.1165 -3.2713 0.2205 5.3984 2.6928 0.1446 1.2402 2.6177 2.2242 -4.6949 -3.6967 -1.0196 1.4584 -0.8219 0.7821 1.9794 0.0053 0.6120 2.7850
-1.8239 2.5324 -1.9050 -3.4923 -1.2364 -1.7786 -0.6957 2.1298 -1.6289 0.8152 -1.2355 -7.1611 -3.8369 -0.4355 3.8771 2.7557 -0.2463 0.7129 1.8964 1.3308 -3.7431 -3.2806 0.9880 0.3506 -1.3516 2.5864 2.8656 2.1530 2.5289 3.1244
-2.7137 1.5939 -1.7593 -3.4426 -0.5950 -1.7429 -1.2992 0.9855 -1.4926 0.0879 -1.1983 -8.0088 -4.2441 -0.4173 4.0527 1.9891 -1.5352 0.1620 1.3954 0.6514 -3.7771 -3.1687 0.9155 -0.3489 -2.5442 3.2084 2.5599 2.7862 2.4049 2.8180
-3.2517 0.4246 -1.9528 -3.8298 -0.2444 -1.6346 -1.9352 -0.3510 -1.5999 0.0353 -0.0905 -8.9575 -4.3437 -0.0364 5.3973 0.6411 -2.9997 -0.3567 1.4086 0.9192 -5.0595 -3.8016 -1.2295 0.3113 -3.7345 2.3241 1.6244 1.7744 0.7699 2.5142
-2.2136 0.8610 -2.2823 -4.8310 -0.7930 -1.9866 -1.3494 -0.3015 -1.8587 0.6118 1.6331 -8.9940 -3.6188 0.3122 5.6743 0.5115 -2.5191 -0.1690 1.9770 2.2996 -4.6969 -3.4719 -1.6117 1.8021 -4.0549 3.2845 2.3828 2.0752 0.7192 2.8212
-0.7464 2.0268 -2.1535 -3.1261 -1.5838 -2.7227 -0.3985 0.5821 -1.7079 0.8169 1.4139 -7.5528 -2.7160 0.6796 4.5614 2.4015 -0.8263 0.5273 2.5961 3.5201 -3.0406 -1.5086 0.8325 2.8970 -3.2347 4.6254 3.6601 3.9890 2.8097 3.4531
0.0721 1.2750 -1.2331 2.0966 -1.2267 -2.7418 -0.3604 1.5524 -1.0560 0.4064 -0.0598 -5.9649 -2.5482 0.7921 3.4290 3.9535 -0.3061 0.8208 2.6179 3.4884 -3.1315 -0.3663 2.4046 2.7838 -2.2659 2.5498 2.3487 4.0923 3.8406 3.6688
1.0562 -0.9757 0.1138 5.3238 0.0921 -1.7147 -0.7989 3.4631 -0.3303 0.0066 -0.1831 -5.1827 -2.2739 0.3156 2.8493 3.2331 -0.5316 0.5916 1.9621 2.5362 -3.9246 -1.4625 0.2656 1.2229 -2.5425 0.0127 -0.5303 1.4901 1.4709 2.5704
2.1636 -1.9355 1.0568 3.7167 0.9048 -0.9183 -0.9188 5.9063 0.0242 -0.1827 0.2930 -4.1391 -1.0435 -0.2027 2.9642 2.0925 0.2420 0.4892 1.0556 1.7546 -2.4392 -2.6901 -3.3149 -0.2508 -3.5758 0.7698 -1.3229 -0.3086 -1.5878 1.2997
2.4135 -1.0669 1.1558 1.9364 0.7401 -1.3610 -0.9374 6.6733 -0.1013 -0.2644 -0.2698 -2.2691 0.2699 -0.0608 4.2094 2.3025 1.7654 0.7971 0.6526 2.1529 0.2373 -1.9662 -4.1119 0.4943 -3.4903 2.4733 0.9810 0.9531 -0.9488 2.4225
2.2699 0.2844 0.8460 2.7933 0.2899 -1.9155 -0.7870 5.7738 -0.3540 -0.0506 -0.5447 -0.6210 0.8810 0.4057 5.5356 2.7655 3.0672 1.3079 1.1198 3.8228 2.0763 0.2750 -1.2437 2.7123 -1.7967 3.8232 4.6628 4.0226 3.1524 5.3048
2.7218 1.6539 0.6262 2.8117 -0.1462 -1.4048 0.0704 5.2862 -0.4671 0.1633 0.4927 0.4440 1.0465 0.3841 5.0170 2.6222 4.0194 1.6988 1.5271 5.4144 3.8232 2.1456 1.9378 3.8062 0.1455 6.8323 7.3052 6.7300 6.3361 6.7769
3.8110 2.4650 0.4806 0.5898 -0.5061 -1.1629 1.0528 5.3071 -0.6352 -0.1455 1.5796 1.4636 1.0784 -0.0279 3.2364 2.4301 4.4230 1.7250 1.1089 5.4494 5.4262 2.0369 1.5388 3.2777 0.9874 9.8070 7.0956 6.9606 5.7224 6.4288
4.7945 1.8823 0.3215 -0.3970 -0.3279 -2.3610 1.2756 4.4816 -0.9902 -0.4431 1.9785 1.9510 0.9323 -0.0751 2.3527 2.7352 3.7303 1.5443 0.8013 4.3307 5.1353 0.3958 -1.8210 2.6740 0.8548 9.3797 4.9337 4.6664 3.0544 6.3358
4.9558 1.0489 0.1246 1.0981 0.0356 -3.3403 1.2091 3.3350 -1.3419 -0.0627 1.9614 1.1302 0.4376 0.2461 2.5719 3.7369 2.2333 1.5268 1.2088 4.0542 3.3612 -0.6424 -3.0398 2.8767 0.6845 7.4071 3.8624 3.6184 2.3302 6.8213
4.8471 1.3909 -0.0630 2.8795 -0.4020 -2.6872 1.2494 3.2432 -1.4190 0.3933 1.9401 -0.0405 0.0018 0.5577 3.0776 4.7334 1.4313 1.7499 1.5059 5.5042 2.1989 0.0064 0.1242 3.3951 0.6038 7.3931 5.1249 5.8659 4.5877 6.7809
4.7278 1.9100 -0.0309 4.0644 -1.1945 -1.8181 0.6645 3.4063 -1.0567 0.1146 2.3637 -0.1967 0.3828 1.0511 3.8404 4.5855 2.0177 2.2485 1.6971 6.8357 1.9940 1.5208 3.3028 3.5031 0.3153 7.7692 6.9481 7.7147 6.4719 6.3983
3.2482 1.4023 0.0302 4.2568 -1.2964 -2.3411 -0.4623 2.2946 -0.6077 -0.5838 2.4836 -0.2003 1.0532 1.4535 4.3440 3.5485 2.3490 3.0872 2.4142 5.9681 1.4218 2.1602 2.2279 3.1496 0.1326 5.2875 6.9926 6.2315 5.2330 6.2807
1.4278 0.5077 -0.4180 1.8975 -1.1093 -3.4739 -0.8769 0.5997 -0.7896 -0.9093 1.4251 -1.6510 0.8815 1.0412 3.9560 2.9726 0.9484 3.6392 2.8917 4.1360 -0.1705 0.6551 -1.0602 2.8113 0.1238 1.9354 4.8658 3.9750 2.8563 6.1768
2.0777 0.0781 -1.1200 -1.5290 -1.2204 -3.5661 -0.3509 -0.2727 -1.4917 -0.6676 0.4342 -3.4352 0.3623 0.4269 3.4294 3.5301 -0.8791 3.1280 2.4537 4.1616 -1.6637 -1.5424 -1.8874 2.7499 -0.2783 1.6086 2.7427 3.7261 2.5962 5.9771
3.2021 0.2221 -1.2172 -1.6724 -1.0815 -2.5778 0.1627 -0.4212 -1.7603 -0.1460 0.6819 -3.4093 0.4144 0.4980 3.3065 4.5455 -1.1772 2.2031 1.8862 5.9195 -1.6788 -1.4792 0.4686 2.7385 -0.8763 2.7572 2.7616 4.6477 4.0275 5.5774
1.3383 0.8271 -0.8266 1.0262 -0.6212 -1.7674 0.2946 -0.5580 -1.4286 0.2918 1.0657 -2.7862 0.3708 0.5140 2.9675 4.7314 -0.5068 1.9359 1.6205 7.0678 -0.9777 0.2614 2.4588 2.4140 -0.8700 2.4576 3.9282 5.1280 4.5974 4.5139
-1.2644 1.6743 -0.9523 1.5915 -0.7956 -1.6296 0.3416 -1.3340 -1.2706 0.3695 0.4601 -3.9515 -0.3741 -0.0390 2.5058 3.6898 -0.7868 1.7771 1.4470 6.6855 -1.3570 0.2103 1.0710 1.7662 -0.9197 3.1162 3.6832 4.2285 2.9747 2.8880
-2.0468 2.5755 -1.6678 -0.4084 -1.4580 -1.2628 0.3474 -2.9224 -1.4850 0.4780 -0.2650 -5.6016 -0.9845 -0.2686 2.7782 2.3639 -1.9538 1.1248 1.6751 5.3618 -2.4198 -1.7300 -2.1652 1.4050 -2.1386 6.5916 2.0867 1.6889 -0.1923 1.2644
-2.8050 3.2002 -2.0567 -1.2491 -1.1964 -0.0313 0.4283 -4.2165 -1.6865 1.2821 0.3663 -5.7470 -1.1212 -0.1073 3.5286 2.0071 -2.5664 0.8127 2.2117 4.2113 -2.5318 -2.4517 -2.8003 1.8448 -2.9374 8.7877 1.6625 0.0411 -1.8183 0.6784
-3.6551 2.8173 -2.0427 -1.1503 -0.0661 1.1303 0.9145 -4.3818 -1.9671 2.2153 1.9444 -6.0953 -1.7430 -0.3789 3.7818 2.8679 -3.0737 0.7558 2.2894 4.4521 -2.2618 -1.5643 0.1154 2.4104 -1.3766 6.7900 2.9609 2.0764 0.3698 2.1231
-2.7133 1.3313 -2.3774 -2.5905 0.2999 1.0964 1.3170 -4.1153 -2.5020 2.2481 2.3025 -8.3610 -3.0429 -0.6772 3.6169 3.4565 -4.6500 -0.0708 1.9705 5.5230 -3.4342 -1.3857 2.1748 2.1159 0.6085 3.2278 3.5274 4.9220 3.0103 4.2371
-1.5687 -0.0120 -2.9935 -4.3642 -0.3214 -0.0482 0.8176 -4.1697 -2.8600 1.8297 0.8370 -10.8479 -4.0158 -0.2643 3.6756 2.7014 -6.1068 -0.6748 1.8269 5.5377 -5.5526 -2.2827 0.3630 1.5961 0.7803 0.5440 2.2137 3.9503 2.1398 5.1329
-1.8967 -0.2670 -3.1320 -4.2543 -0.6081 -1.5990 0.0195 -4.6111 -2.6821 1.7830 -0.6337 -11.4807 -4.1425 0.2965 3.6832 2.6124 -5.7902 0.2437 1.7721 4.6154 -6.3117 -2.5342 -2.3445 2.2430 0.4856 -1.0823 1.1898 1.3638 0.6816 5.8425
-1.3897 -0.2994 -2.7521 -2.4404 -0.3853 -2.4724 -0.0556 -5.1421 -2.4242 1.7513 -1.5760 -10.1348 -3.6170 0.3864 3.3929 4.5457 -4.2932 1.1714 1.5733 4.4201 -5.3386 -1.5744 -1.9747 3.5182 0.4970 -0.6141 2.1360 1.9663 2.4074 6.7119
0.8803 -1.0885 -2.5818 0.0515 -0.6446 -1.8890 0.0377 -5.2311 -2.7772 1.5439 -2.8260 -8.0365 -2.9726 0.1485 3.6063 5.2461 -3.1177 0.6182 1.2810 5.0323 -4.7463 -0.6916 0.5333 3.3967 -0.6413 1.7509 3.3020 4.0176 4.2815 5.5064
1.7991 -1.5840 -2.7026 1.7729 -1.1798 -1.0803 -0.3222 -4.5883 -3.3187 1.7266 -2.9653 -6.7607 -2.8529 -0.3395 4.1478 2.7402 -2.6641 0.0538 0.9165 5.1428 -5.2515 -0.9773 1.3274 1.6264 -2.1952 2.3435 2.4280 3.3856 2.9796 3.3283
-0.1053 -0.3836 -2.1389 1.7479 -0.7185 -1.5459 -0.1875 -3.3597 -2.7463 2.0792 -1.1503 -6.2739 -2.6953 -0.8056 3.2895 0.8501 -2.0628 0.8770 0.4824 4.3441 -4.5935 -1.9751 -0.8529 0.1976 -1.9532 0.0281 0.1725 1.1404 0.7659 3.7992
-2.4570 1.9248 -0.7979 1.9120 0.5370 -2.0455 1.0364 -2.2437 -1.2729 1.9647 -0.1616 -5.0139 -1.6330 -0.6629 1.1149 2.1443 -0.7968 1.6661 -0.0523 3.9890 -1.9428 -2.6431 -3.3777 0.1545 -0.4093 -0.5382 -1.3907 0.2197 -0.1808 5.6585
-3.1454 3.9101 -0.0533 4.4148 1.0224 -0.9851 2.4399 -1.6628 -0.7785 1.8602 -0.6800 -2.9271 -0.6166 -0.1150 0.0675 3.9498 0.0579 0.8129 -0.5453 5.5412 -0.0766 -2.5535 -2.9530 0.5091 0.7092 2.9267 -1.0317 1.3051 -0.0687 5.5906
-2.1196 4.5395 -0.1495 7.5992 0.6782 0.3048 3.1826 -0.7024 -1.5318 2.2628 0.0923 -1.3500 -0.2981 0.0299 0.9361 4.4263 -0.1612 -0.6719 -0.5597 8.0199 -0.5671 -1.8036 0.4475 0.7382 1.3416 5.5104 1.3257 3.8782 1.6689 4.8192
-0.0178 3.3122 0.0644 8.9425 0.8089 0.0694 3.1234 0.4968 -1.8173 2.4343 2.2052 -0.5100 0.1437 -0.4402 2.0517 4.7120 -0.3494 -1.1235 -0.1965 8.9301 -1.5617 -0.8570 2.8487 1.4274 2.1413 3.8806 3.4638 5.3784 3.7636 5.5587
1.7674 1.7702 0.5319 8.8951 1.4109 -0.9333 2.4657 0.3750 -1.2514 1.9924 3.8255 -0.0242 0.2897 -0.9704 2.6633 5.1713 0.0833 -0.8242 -0.0284 7.7012 -1.5724 -0.3065 1.1667 2.4119 3.1858 2.0735 2.4981 3.0589 2.7340 6.8603
1.5961 2.3434 0.5705 9.1836 1.6881 -1.2690 1.9298 0.2065 -0.9642 1.8529 5.0272 0.4077 -0.2525 -0.7788 3.4242 5.5775 0.5958 -0.5275 0.1888 5.9316 -0.7415 0.1705 -1.5074 3.0480 4.1201 3.4924 0.1646 -0.1059 0.0035 7.6158
0.1427 4.1229 0.6002 10.2857 1.8560 -1.0533 2.0448 1.6916 -1.1094 2.3882 5.5097 1.3766 0.0351 0.2514 4.1525 6.6015 1.1802 0.0251 1.0480 5.2160 0.4512 1.6051 0.1041 3.5174 4.5240 5.4321 0.9656 1.2147 0.8579 8.3018
-0.4654 4.1056 0.6357 11.1038 2.0067 -1.3707 2.2925 1.9997 -1.3120 2.5407 4.6138 1.9459 0.7746 0.9320 4.0262 7.7138 1.5726 0.3000 1.8051 5.7802 0.3725 3.2069 4.4215 3.7641 4.0762 4.6402 4.0346 5.3506 4.7202 8.8167
-0.4455 2.5586 0.0114 10.5537 1.4695 -2.7217 2.1013 -0.4513 -1.8393 1.6633 3.6987 0.4163 -0.0907 0.1842 3.0010 7.1441 0.8506 -0.7344 1.2031 6.2041 -2.1789 2.4352 4.7838 2.9152 2.5465 1.6969 4.3051 5.8889 5.6643 7.9504
-1.3237 2.2605 -0.5134 9.5442 0.6004 -4.1940 1.7776 -1.7080 -2.2985 0.6763 3.5952 -1.4189 -1.0815 -1.0488 1.7013 5.1554 0.0593 -1.8170 -0.1050 5.3627 -4.4138 -0.3366 0.2756 1.2322 0.4938 -0.1997 1.2734 1.8814 2.4146 5.5166
-2.1796 3.3021 0.0629 9.0134 0.6274 -4.5703 1.7586 0.0912 -1.8642 0.6056 3.3026 -0.9512 0.1035 -1.2112 0.7947 3.7899 1.2984 -1.2626 -0.4368 4.3509 -3.0366 -1.4772 -3.2251 0.3514 -0.5833 1.5094 -0.8498 -1.2625 -0.1393 3.3531
-1.3113 3.5011 0.7231 7.7295 1.4513 -4.0797 2.0438 1.6174 -1.2369 1.3194 2.8408 -0.2486 1.3826 -0.4634 0.5557 3.8692 3.2379 -0.2995 0.0311 4.6182 0.0960 -0.1362 -2.4290 0.8469 -0.0465 4.9690 0.0145 0.0572 1.3507 3.3344
0.3861 2.9055 0.4363 5.2267 1.8649 -3.6877 2.3541 1.3118 -1.2940 2.2329 3.0817 -1.6641 0.8080 0.4916 0.8549 4.6191 2.8138 -0.3945 0.1885 5.8506 1.2893 0.8968 0.1002 1.6848 1.0587 5.7933 2.1510 3.2851 4.8061 5.2500
1.2480 3.0555 0.1063 2.7584 1.6012 -3.4520 2.2312 1.1776 -1.1256 2.8386 3.6454 -3.0375 0.5113 1.5185 1.3598 4.6289 0.8195 -0.5538 0.1814 6.9087 0.3990 0.1620 0.7751 1.8508 1.4505 3.7644 2.9364 3.5312 5.8411 7.0637
1.2161 3.4744 0.5851 0.9408 1.4736 -3.0557 1.6586 1.9929 -0.1118 2.6258 3.6134 -2.4726 1.5462 1.7317 1.2436 3.2272 0.4696 0.0419 0.1352 6.9610 -0.6831 -1.1977 -1.2146 1.0610 0.9982 2.7108 1.5605 0.0344 3.0410 6.8639
0.6446 3.0777 1.2630 1.0711 1.9188 -2.8692 1.3261 2.7404 0.4613 1.8950 2.7360 -1.1601 1.7869 0.5368 0.1279 1.9992 2.0401 0.5738 -0.3738 5.9076 -0.9060 -1.4744 -3.4462 -0.3131 0.6760 4.0450 0.1062 -2.8006 -0.0423 5.0180
0.1216 2.3047 1.3410 4.4172 2.3922 -3.3575 1.4504 3.2423 -0.3916 1.6773 1.4724 -0.2320 0.6833 -0.5386 -0.5675 2.3821 3.0115 0.4784 -0.6699 4.8688 -0.3631 -0.3239 -3.0189 -1.3868 0.8403 5.3886 0.4235 -1.8021 0.2800 3.8129
1.0626 1.5534 0.8872 7.9291 2.2096 -4.1179 1.4500 3.7521 -1.6582 2.0337 0.8361 -0.1956 -0.0601 -0.2643 0.2239 2.9359 2.1578 0.1259 -0.0450 5.0301 -0.0384 0.4953 -0.6604 -1.4125 0.4738 5.2916 1.1750 0.7986 2.8698 4.2518
3.2043 0.8929 0.6098 7.6971 1.6457 -4.2897 1.1982 3.5706 -1.7163 2.2230 1.2227 -1.3847 0.1157 0.4237 1.1576 2.4186 0.9413 0.0664 0.5056 5.8902 -0.6400 -0.2814 -0.0761 -0.4122 -0.4829 5.1189 0.8151 1.5749 4.4719 5.3331
3.9995 1.1734 0.8718 4.8744 1.4242 -3.8804 1.0662 2.5234 -0.5770 2.1856 1.6060 -2.5714 0.7778 0.7089 1.1808 1.9989 0.8758 0.5774 0.0682 6.1717 -1.3137 -1.3726 -2.4287 0.8180 -0.6724 5.8024 0.1126 0.3718 4.0442 6.3511
2.9073 2.4734 1.1091 2.5229 1.2741 -3.8335 1.0059 2.2384 0.1227 2.0007 1.2536 -2.2621 2.0540 0.9070 1.1940 2.1667 1.3143 1.5747 -0.4014 5.8785 -0.7918 -1.1178 -4.0898 1.5022 -0.1088 6.8149 0.1546 -0.4103 2.8519 7.0372
2.2755 3.4117 0.7409 1.4855 0.4669 -4.4307 0.9996 3.2426 -0.4106 1.4994 0.6882 -1.2827 3.5573 1.0883 1.5548 1.9801 1.0186 2.8050 0.4187 5.9481 0.4098 0.6237 -1.5406 2.0020 0.4915 8.2914 1.4262 1.6526 3.4643 7.2007
2.9035 3.5711 0.0164 1.6163 -0.6898 -4.9216 1.4568 3.3938 -1.1885 1.2760 0.3933 -1.2677 4.0546 1.1226 1.4440 1.6917 0.2673 3.8969 2.0255 6.3333 0.9168 2.7932 3.2872 3.2502 1.8784 9.6070 3.7838 5.8572 6.8059 7.7097
3.2686 3.8409 -0.3938 2.3383 -1.4154 -4.9731 2.1726 2.1684 -1.2106 1.7392 0.5860 -1.6337 3.5536 1.2593 0.6482 1.9464 0.0886 4.5287 2.6719 6.2566 1.2266 4.1067 5.3484 4.6796 3.8434 8.5363 5.6151 7.9651 9.1760 8.9313
2.8858 4.1794 -0.1570 2.2802 -1.5620 -4.8404 2.2714 1.7466 -0.5414 1.9327 0.9158 -0.8503 3.3507 1.5506 -0.1458 1.6052 0.7079 4.7288 2.0267 6.3572 2.3116 4.4248 3.5877 4.6384 4.4515 6.2267 6.0029 6.4636 7.6183 9.4543
2.5281 3.8101 0.2169 0.7290 -1.3079 -4.5148 1.6843 2.2602 -0.0041 1.3738 -0.0643 0.5128 3.4651 1.5824 -0.1412 0.0689 1.5644 4.4807 1.3727 7.6570 2.9425 4.4457 1.9485 3.1357 3.7991 6.7123 6.3624 5.5020 5.6102 8.6069
2.2683 3.0524 0.1394 -1.1450 -0.7327 -4.0852 1.3223 2.1610 -0.2923 0.8488 -1.7680 1.2994 2.9101 1.0407 0.3529 -0.2535 2.2429 3.8366 1.1180 9.0964 2.3462 4.6392 3.0274 1.8973 3.5795 9.0461 7.2964 7.6027 6.8621 7.6938
1.8591 2.8289 0.1016 -1.3690 0.0540 -3.7402 1.7193 1.9893 -0.9262 0.5086 -0.8918 2.3704 2.2470 0.2857 -0.0136 2.3567 2.9461 3.5431 0.8292 9.8838 2.4057 5.6899 4.8226 2.0253 3.8869 9.1318 7.7506 9.8571 9.3022 8.2323
1.6269 3.3294 0.4688 -0.1726 0.6135 -3.2160 2.5259 2.4474 -1.1745 -0.0453 2.1642 4.2618 2.5387 0.0104 -1.1340 5.0743 4.0477 3.7777 0.7104 10.7172 3.8807 7.1887 4.3301 2.9735 4.3991 8.1523 7.4809 9.7034 9.6660 9.9986
1.7878 4.0955 0.5259 0.1902 0.5094 -2.5116 3.1045 2.4171 -1.3540 -0.2635 2.8318 5.5559 2.9728 0.0614 -1.5892 4.8152 5.3558 3.4480 0.4264 10.1956 4.7051 6.8348 1.5411 3.0998 5.1485 9.0848 6.6686 7.9933 7.9944 10.8431
1.9060 4.2387 0.3707 0.0884 0.5059 -1.8332 2.9766 1.5670 -1.5433 0.5189 1.0936 5.8204 2.4618 -0.1984 -1.2205 3.6013 5.9221 2.5372 -0.7820 7.2171 4.0789 4.7240 -0.5911 1.7343 4.8940 9.7212 5.7896 6.4253 6.3416 9.7078
1.3081 3.2773 0.7237 1.6448 1.5738 -0.8790 2.2123 0.8408 -1.3702 1.8091 1.4208 5.6131 1.5871 -0.3754 -0.3609 4.5498 4.9846 2.2501 -1.8226 5.4430 3.7314 4.0124 0.0928 0.6205 3.1359 7.6329 6.1814 5.9544 6.1696 8.1449
-0.0587 2.5655 0.6918 3.2837 2.3955 -0.0933 1.7161 0.3790 -1.6166 2.6292 3.5534 4.1422 1.1478 0.0264 0.9679 6.0671 3.2849 2.1359 -1.4725 7.1813 4.2119 4.7904 1.7911 1.1060 2.0241 5.5330 7.1052 6.2323 6.5921 7.0895
-1.0019 3.3914 -0.2943 2.7653 1.5833 -0.4148 2.2184 0.1724 -2.5924 2.7844 3.6170 1.8352 1.0763 0.2988 1.7052 5.2898 2.3399 1.1165 -0.8520 9.1042 4.3965 4.2140 1.5655 1.8615 2.8298 6.3949 6.1864 5.9196 5.7025 5.7625
-0.3925 4.0884 -0.5884 1.7456 0.9135 -1.0036 3.0388 0.9275 -2.7718 2.8272 2.1156 1.2650 1.3209 0.1110 1.1701 3.2392 2.3090 0.2965 -0.9191 9.1055 4.2733 2.6703 0.1504 1.7890 4.0424 8.7482 4.4265 5.0246 3.9497 4.3801
0.6506 2.7700 0.1617 0.9462 1.7127 -0.7394 3.0346 2.0372 -1.9912 2.6820 1.4576 1.8864 1.7200 0.0713 0.4084 2.1720 2.0679 0.7561 -0.9570 8.5990 3.8532 2.4606 0.1496 1.6722 4.4183 9.1451 4.2398 5.0297 3.5278 4.0139
-0.0558 0.8748 0.1323 -1.0959 2.1219 -0.5453 2.2438 1.6301 -1.8555 1.7329 0.7815 0.4066 1.6203 0.0897 -0.0486 1.8234 1.0142 1.3372 -0.8137 7.9241 1.8673 2.7547 1.4076 1.7884 4.0171 6.6466 4.2103 5.8220 4.5340 4.0211
-2.4258 0.3584 -0.5983 -2.4916 1.5335 -1.2817 1.4559 -0.1430 -2.1913 0.7169 -0.2933 -2.6648 1.1194 -0.2049 -0.7076 1.0729 -0.3263 1.2890 -1.0212 6.9491 -0.9232 1.8525 1.7269 1.2875 2.6368 3.9709 2.3016 5.2264 4.4844 2.5920
-4.4233 0.6266 -0.5465 -0.9653 1.6076 -2.2580 0.9695 -1.3610 -1.9819 0.9328 -0.2725 -4.1864 1.0561 -0.3824 -1.3946 -0.0997 -1.0867 1.3074 -1.3935 6.8020 -2.0667 0.5834 -0.0298 -0.2303 0.3117 3.5591 0.1277 2.1573 1.7790 -0.2139
-5.0645 0.5102 -0.2409 0.7252 2.0195 -2.7795 0.6309 -1.7051 -1.8032 1.7569 -0.4565 -4.0847 1.3306 -0.1648 -1.5516 -1.3599 -1.1371 1.2437 -1.5473 7.2924 -2.1772 -0.1874 -2.7407 -2.0479 -1.8078 3.5670 -0.4545 -1.3753 -1.7712 -2.2459
-4.9167 0.0853 -0.4809 0.2414 1.5580 -2.4831 0.4169 -2.0505 -1.7971 1.9498 -2.6334 -3.6029 1.4573 0.1568 -1.1097 -2.2234 -1.0582 0.6499 -1.3048 7.0804 -3.1405 -0.9232 -3.4976 -2.7570 -2.4969 1.1580 -0.1771 -2.2213 -2.7776 -2.3795
-4.7289 -0.0090 -0.3328 -0.1217 1.2118 -1.3521 0.4899 -1.9764 -1.0868 1.8222 -4.0716 -2.0951 1.8693 0.3596 -0.4043 -2.1046 -1.0028 0.4291 -0.5886 6.8219 -3.9484 -1.3109 -1.1212 -1.8303 -1.7438 -1.9956 0.2104 -0.1283 -0.7240 -1.6338
-4.6553 0.4899 0.3819 0.7253 1.5632 -0.7298 0.9652 -1.0115 -0.2738 1.7462 -2.7925 -0.0340 2.7043 0.2559 -0.2473 -1.6324 -0.7461 0.8837 -0.0339 7.9698 -3.7058 -1.0110 0.9158 -0.4769 -0.7989 -2.3576 0.8766 1.6697 1.1088 -1.0293
-4.0323 0.8406 0.4442 0.4989 1.4879 -1.7398 1.6666 -0.5432 -0.5489 1.2821 -2.1269 0.0681 3.0862 -0.1959 -1.0386 -2.0244 -0.5837 0.7138 -0.3746 9.6591 -3.7047 -1.1344 -0.9231 0.1891 -0.3458 -0.1122 1.0395 0.8030 0.3058 -0.4406
-2.4516 0.4174 -0.0097 -0.9451 1.2425 -2.8083 2.1247 -1.1001 -1.1782 0.7417 -3.4418 -1.3476 2.7197 -0.5227 -1.7296 -2.6240 -0.7288 -0.0911 -0.9771 10.2293 -3.7700 -1.8827 -4.0296 0.5641 0.5738 2.6114 0.2123 -1.1120 -1.1427 0.4888
-0.7961 0.2628 0.3873 -0.8806 1.8538 -1.7772 2.1540 -0.4972 -0.7380 0.7537 -3.0445 -0.4889 2.5063 -0.1854 -1.5159 -1.5669 -0.5018 0.3119 -0.6221 9.6106 -2.2420 -1.3286 -3.0871 1.5913 2.3871 5.2468 0.4441 -0.6736 0.1363 1.7311
0.1761 1.1017 1.3852 1.2762 2.1919 0.5398 2.0526 1.5583 0.4575 0.8565 -0.5177 2.9056 2.9475 0.6992 -1.1362 1.1371 0.4534 2.2174 0.6923 8.0027 0.1196 1.4379 1.7030 3.4547 4.1875 6.5323 3.1259 2.7446 3.9126 3.3300
0.8812 1.5571 1.3436 2.9347 1.0102 1.6109 1.8729 1.7447 0.8940 0.5044 0.2929 4.1531 3.1260 1.3212 -0.9416 3.0853 1.0406 3.5515 1.8683 5.2660 0.8803 4.0987 4.8725 4.9948 5.7069 4.4862 5.3391 5.5877 6.5587 5.4638
1.6085 0.9659 0.2890 2.4499 -0.3385 0.7662 1.5123 -0.4641 0.1861 -0.0772 -0.5881 1.8750 2.4863 0.9606 -0.6741 2.3415 0.4511 3.1102 1.9392 2.1830 0.3386 4.1178 3.4508 4.7664 6.6817 2.1297 4.2533 4.7436 5.7499 7.1278
1.7613 0.8146 0.0772 1.6692 -0.2785 -0.3506 1.3369 -1.3653 -0.4004 -0.6936 -0.2927 0.8294 2.4222 -0.0847 -1.1618 0.4442 -0.1695 2.2904 0.9629 -0.1822 1.2946 2.9930 0.5360 3.1160 5.7454 4.7239 2.3443 2.2630 3.2981 6.3929
0.6989 1.5848 1.1915 2.7880 0.6050 -0.1948 1.3925 0.0825 0.0039 -1.0979 0.8602 3.2924 3.9051 -0.6529 -2.5378 0.8047 0.4040 2.9496 0.1981 -1.3267 3.9425 4.2161 0.8034 1.9735 3.1677 9.0518 2.9660 2.2420 2.8356 3.7254
-1.3160 1.9468 2.0692 4.7137 1.2500 0.7800 1.2056 1.2373 0.6422 -0.6774 1.6853 5.7032 5.3019 -0.1386 -3.1914 3.3182 1.7057 4.8732 0.6409 -1.0656 5.5610 7.5702 4.6436 2.4422 1.6339 7.7298 4.7227 4.9456 5.3578 1.9045
-3.2212 1.6627 1.9255 5.4841 1.5798 0.9385 0.9601 1.1234 0.6965 0.3640 2.2822 5.8428 4.8441 0.7002 -3.1617 4.2114 2.8370 6.1063 1.3125 -0.4722 5.5213 9.3899 7.6335 3.1629 1.8554 3.0628 4.5249 6.9608 7.5824 1.1549
-4.0884 1.5096 1.4822 5.0474 1.6178 -0.0490 0.9504 0.5710 0.5136 0.8991 1.7696 4.8113 3.0894 0.9216 -3.9087 2.2622 3.2919 5.2928 0.6608 -1.3860 5.0366 7.6726 5.8188 1.8996 1.2211 1.6886 1.9163 5.3202 5.5254 -0.6529
-3.7083 1.0458 1.0190 3.6655 1.2399 -0.8204 0.7701 -0.4521 0.3655 0.6762 0.3799 2.9248 1.6007 0.5025 -4.6166 0.2282 2.6762 3.0148 -0.7366 -3.2454 3.8393 4.3089 1.2199 -0.5710 -1.3069 1.8298 -1.3250 0.8030 0.2100 -2.9539
-2.9281 -0.0015 0.3182 1.9779 0.7463 -0.6555 0.5567 -1.5991 -0.1431 0.3634 0.3720 0.9116 1.0570 -0.3054 -4.2123 -0.3952 1.5536 0.9482 -1.2606 -3.6687 2.3429 2.6791 -0.2879 -1.1722 -3.3346 -0.3161 -2.9596 -2.3759 -2.8476 -3.4564
-2.9602 -0.1647 -0.1487 1.6284 0.4617 -0.5100 0.8835 -1.8711 -0.6702 0.1093 1.5358 1.2264 1.0159 -1.2053 -4.0400 -0.5271 1.1803 0.3068 -0.9701 -2.6601 2.6671 3.5459 2.7280 0.2612 -3.3460 -2.2826 -2.3580 -1.7110 -1.3097 -2.3756
-3.3330 0.7984 -0.0214 2.6496 0.4392 -1.2739 1.2062 -2.0956 -0.4205 -0.0571 1.9152 3.5062 0.6070 -1.5186 -4.3660 -0.2793 1.2118 0.8669 -0.8097 -2.4309 4.3214 4.2175 5.2054 1.1833 -2.5003 -2.0331 -1.3456 0.0653 0.8020 -1.3712
-2.5851 0.6733 0.2013 3.3137 0.8515 -2.2252 0.8375 -3.4160 0.0723 0.2380 1.8023 3.9929 -0.3197 -1.3135 -3.7248 0.1094 -0.0985 1.0612 -1.0647 -4.0120 4.6295 2.5020 3.0945 0.5711 -2.2943 -1.4038 -1.9153 -1.0298 -0.8449 -1.3035
-1.5056 -0.7225 0.3548 2.6628 1.6934 -1.9264 0.4906 -4.0886 0.0297 0.7464 2.3433 1.9282 -0.7482 -1.5063 -2.8923 -0.7918 -2.6263 -0.0686 -1.7683 -6.4211 3.9361 -0.3134 -1.2007 -0.8922 -3.4368 -0.8374 -3.8180 -4.3487 -4.9338 -2.3519
-2.3115 -0.3088 0.7563 1.1909 2.3901 -0.5300 1.0293 -2.7513 0.0300 1.0712 3.6975 1.0085 -0.1709 -1.9842 -3.3767 -2.1674 -4.1434 -1.3699 -2.4124 -7.4318 4.4179 -1.5643 -2.6405 -2.1877 -5.1896 0.5708 -4.7125 -5.4648 -6.3474 -3.5024
-4.3501 2.3881 0.9310 0.3928 2.4441 0.2651 1.9857 -1.9934 0.2421 1.5662 5.2672 2.6274 -0.0971 -2.1444 -4.0536 -2.0138 -4.1547 -1.7757 -2.3218 -5.7408 5.2343 -1.1302 -0.6336 -2.6209 -5.4530 2.0726 -3.2530 -3.1391 -3.5226 -3.2393
-3.9956 3.7249 0.4158 0.8416 1.9797 0.2834 2.4732 -3.1959 -0.1307 2.2058 5.3779 3.6299 -1.7356 -2.4802 -3.8190 -1.5506 -4.1999 -1.9377 -2.1933 -3.4110 4.5787 -1.3840 0.4047 -2.8978 -3.6560 3.2083 -1.4909 -1.3222 -0.7075 -1.5004
-0.2021 2.5764 0.1139 0.9422 1.5568 1.2236 2.6577 -3.2021 -0.6814 2.2174 3.5685 2.5972 -3.3879 -3.0761 -3.6054 -1.8155 -3.9965 -2.0252 -2.6864 -3.0007 3.6043 -3.0782 -2.0354 -3.6126 -1.1986 5.1131 -1.3283 -1.8720 -0.7066 1.2341
2.9270 1.9257 0.6304 -0.3699 1.7034 3.0027 3.2230 -1.0855 -0.5252 1.3525 2.3467 1.5481 -3.1254 -2.9860 -3.9021 -0.4186 -2.1270 -1.5276 -2.9645 -3.4450 3.4553 -4.2067 -4.7918 -3.4711 1.3402 7.6827 -1.0017 -1.5725 -0.8602 4.7050
2.4782 2.7264 0.9901 -2.0176 2.1698 3.2351 3.8829 -0.3891 -0.1831 0.1794 2.8455 1.0803 -1.8899 -2.3649 -3.9775 2.7123 0.3985 -1.0948 -2.5555 -2.6831 3.0609 -3.4223 -3.9742 -1.6287 3.6619 9.2116 1.1942 1.3288 1.3832 7.4947
1.2808 3.1475 0.6342 -2.8603 2.1325 1.2330 3.9861 -1.7203 -0.1865 -0.4500 3.0578 0.7361 -1.1173 -2.0647 -3.4252 4.1690 1.9427 -1.0936 -1.8393 -0.9774 2.6499 -1.5277 -0.1410 0.8948 4.8334 9.2777 3.8485 4.7772 5.0475 8.3564
1.8441 3.1963 0.3333 -2.9215 1.5850 -0.7985 3.9529 -2.0782 -0.0871 -0.2155 2.4880 1.5338 -0.4647 -1.7455 -2.5480 3.9206 2.9629 -0.7968 -0.9275 0.5349 3.5203 -0.0729 2.8376 3.1814 5.6536 8.5813 5.3520 6.9002 7.9659 8.3697
2.7493 3.8411 0.4469 -2.5661 1.0604 -1.1965 4.2269 -1.2458 0.2624 -0.0279 2.3411 3.0882 0.2104 -1.1475 -1.9740 4.3903 3.8240 -0.4193 -0.2796 0.5487 4.8490 -0.1793 2.2508 4.7314 7.1957 7.7314 5.5999 6.8590 8.1760 8.8185
3.8015 4.0681 0.5884 -1.5119 0.2846 -0.5482 4.2152 -0.5219 0.4509 -0.5981 2.3126 3.2768 0.4823 -1.0382 -2.0784 4.4201 3.5724 -0.4707 -0.4934 -1.7641 5.6832 -1.2266 -0.2572 4.6982 7.6905 7.8162 4.9884 4.9241 5.5520 9.0075
5.8808 3.2821 0.8180 0.6465 -0.7614 0.1797 3.8596 1.1945 0.3696 -0.9276 2.2927 2.2773 1.1962 -1.2072 -2.4396 2.7378 2.6660 -0.0480 -0.8155 -3.9800 6.4590 -0.8464 -0.4713 3.5582 6.6682 8.6663 4.9002 4.2697 3.8942 8.5015
6.5436 2.8833 1.2241 2.5572 -0.8855 0.4979 3.9388 3.4618 0.3400 -0.2211 2.8574 1.5794 2.4553 -0.5435 -2.4345 2.2955 3.2290 1.2975 -0.0867 -2.8928 6.8863 1.8489 2.5832 3.5829 7.2745 8.4681 6.6898 7.4421 6.7443 8.6127
4.2816 3.2213 1.1578 2.1541 0.1028 0.0070 4.1314 2.9491 0.4945 0.5266 2.6220 1.0079 2.2127 0.5826 -1.9121 4.1418 5.0340 2.2509 1.3337 -0.1129 6.7911 4.3132 4.9410 5.2360 9.6708 7.7909 8.4400 10.9887 10.9082 9.3990
2.6279 3.2300 0.4194 0.5158 0.4594 -0.7977 3.6200 0.1485 0.4825 0.5795 0.7616 0.5285 0.7521 1.0618 -0.9930 4.7401 5.1085 2.0796 2.3332 0.5603 7.1513 4.1138 3.6760 6.1121 10.1021 8.4549 7.3595 10.1249 10.5683 8.9899
3.8677 3.1318 -0.2507 0.7504 -0.7848 -0.9747 3.0630 -0.9019 0.0168 0.4827 -0.3440 0.7960 0.8597 1.0873 -0.2616 3.3068 2.9444 1.6267 2.6346 -0.8323 7.6493 2.6534 1.5436 5.3666 8.2318 8.8599 5.2434 6.8812 7.0801 7.7234
5.1681 3.4258 -0.7075 2.4770 -2.4015 -0.9906 3.1227 -0.5202 -0.7078 0.3491 0.5882 0.4850 1.5776 1.1099 -0.6823 2.5463 1.0715 1.2503 2.2704 -1.9212 6.7051 2.4077 2.3581 4.5720 6.7548 7.0187 5.1621 6.0890 6.2576 7.5985
4.0837 3.0015 -1.2689 2.7261 -2.8941 -1.6670 2.7779 -1.9965 -1.1229 -0.1759 1.5576 -1.8507 0.0050 0.8086 -2.2887 2.2233 -0.0322 0.6963 0.9502 -2.2378 4.1465 2.7902 4.5975 3.5785 5.5238 4.2833 5.4048 6.7303 7.6304 7.4631
1.6366 1.4835 -1.2973 2.0201 -2.1491 -2.1948 1.5302 -4.4661 -0.6855 -0.5863 1.2379 -4.0957 -2.0349 0.2884 -3.9171 0.6554 -1.4518 0.5371 -0.8653 -2.9676 1.3675 1.9583 4.1264 1.2720 3.1346 1.7629 3.3203 5.0739 6.2253 5.1946
-0.4891 0.1979 -0.4160 2.7890 -0.8727 -1.7406 0.6672 -5.0918 0.1834 -0.2712 0.1560 -3.7671 -1.4974 0.1080 -4.6550 -0.9562 -2.2544 0.8260 -1.8953 -4.9269 -0.2383 -0.0690 0.9804 -1.0870 0.5180 -0.9084 0.1699 1.7658 2.1227 2.1009
-1.8068 -0.5517 0.1281 3.4372 0.2572 -1.3569 0.6700 -4.5216 0.2305 0.2082 -1.4758 -2.5035 -0.0111 0.1338 -4.6332 -1.5005 -2.0774 0.3036 -1.7336 -7.4167 -0.6522 -2.2966 -1.2349 -2.1657 -1.2755 -2.8452 -2.4223 -0.6196 -0.7936 -0.3664
-3.2493 -1.1621 -0.6469 1.8492 0.4410 -2.2863 0.4270 -4.8840 -0.7290 -0.0258 -3.1412 -3.1906 -0.2947 -0.0072 -4.5125 -2.1424 -3.0004 -0.9647 -1.0773 -8.4023 -1.4169 -4.1981 -0.8814 -2.7090 -2.8082 -4.1163 -4.9559 -1.9579 -1.5376 -3.2777
-5.6950 -1.0749 -1.8940 0.8581 -0.6733 -3.7684 -0.3604 -6.0051 -1.5175 -0.6889 -3.3873 -5.6136 -1.8285 -0.1264 -4.6040 -3.3278 -5.2406 -1.5031 -0.5023 -7.1425 -3.3180 -5.5530 0.1648 -3.2215 -4.6001 -6.9632 -7.5743 -3.2371 -1.9336 -6.7245
-7.4006 -0.5990 -2.4048 2.2479 -1.7994 -4.0916 -0.9058 -6.3703 -1.4985 -0.6956 -2.1302 -7.8039 -3.0252 -0.0345 -4.4411 -4.2382 -6.1313 -1.5123 -0.2838 -5.7496 -4.9253 -6.3999 -0.6728 -3.5046 -6.8079 -10.1068 -9.7284 -5.2382 -3.8013 -8.8236
-6.7705 -0.5909 -2.2145 1.9056 -1.4834 -3.1815 -1.0481 -5.8439 -1.0325 0.2070 -0.9100 -8.9421 -3.6598 -0.0074 -3.6409 -4.7370 -4.8272 -2.2288 -0.5697 -6.1281 -5.1800 -7.1170 -3.4253 -3.9538 -9.1507 -9.5814 -11.2257 -8.2621 -7.1596 -8.6658
-5.8844 -0.1915 -2.1489 -2.0333 -0.6594 -2.3513 -1.0808 -5.8661 -0.4956 1.0709 -0.3344 -9.3022 -4.1797 -0.3079 -2.9126 -4.9776 -3.5682 -3.3297 -1.0454 -7.4864 -5.2281 -7.9181 -5.3804 -4.5991 -10.0639 -7.2365 -11.7656 -10.9241 -9.5880 -7.3465
-5.4528 0.5677 -2.5843 -4.8100 -1.0615 -1.7132 -0.8325 -6.8408 -0.3813 1.1700 0.1957 -9.2748 -4.8625 -0.8647 -3.0608 -4.5937 -3.9306 -4.0564 -1.3082 -8.2196 -5.8022 -8.3395 -4.8556 -4.6512 -8.6452 -7.3378 -11.2951 -11.4013 -9.3550 -6.5334
-2.9117 -0.3156 -3.0599 -3.7375 -1.9795 -0.4057 -0.0955 -6.9866 -1.2158 0.8357 0.6497 -9.1985 -5.5730 -1.4554 -3.6196 -3.4634 -4.9265 -4.5369 -1.4704 -7.5337 -5.4177 -7.8006 -3.4035 -3.8214 -6.1279 -7.3331 -10.1967 -9.8030 -7.7906 -6.6805
0.1426 -2.2714 -2.9089 -1.9017 -1.7397 1.0035 0.7297 -5.6495 -2.1806 0.5555 0.1832 -9.0646 -5.6932 -1.8872 -3.8647 -2.4657 -5.1614 -4.5232 -1.7627 -5.4956 -3.2175 -6.7875 -3.3381 -2.8120 -3.8255 -4.4999 -8.4922 -7.8986 -6.8671 -6.8857
-0.0742 -2.8228 -2.1842 -1.2470 -0.9249 1.3005 0.9717 -5.2216 -1.8455 0.2715 -1.1954 -8.4324 -5.1739 -2.1648 -3.9840 -2.7504 -4.8117 -3.7562 -2.0884 -3.6305 -1.0859 -6.3332 -4.8288 -2.6449 -2.5782 -2.8609 -6.4478 -7.1867 -6.9293 -6.3824
-1.0436 -2.2210 -1.5746 -0.7633 -0.7920 1.0098 0.7595 -6.7206 -0.7060 -0.0329 -1.8885 -7.3489 -4.7259 -2.3611 -4.0626 -3.5696 -4.4212 -3.2712 -2.2547 -3.3891 -0.6427 -6.1147 -5.4362 -3.2577 -2.7257 -3.1258 -4.4992 -6.6329 -6.4582 -4.8522
-0.1917 -1.2502 -1.3046 -0.7929 -0.7520 1.3210 1.0441 -7.4978 -0.1444 -0.1446 -0.9334 -6.8306 -4.1760 -2.2487 -3.7280 -2.6048 -3.7242 -3.6977 -2.0984 -3.6675 -0.8965 -4.8765 -2.9996 -3.1049 -2.3940 -0.7176 -2.2160 -3.7911 -3.5229 -2.1442
-1.5571 1.0550 -1.2947 -2.1625 -0.4116 1.7506 1.8299 -6.6733 -0.0960 -0.2492 0.0951 -7.6976 -3.3768 -1.7505 -3.2237 0.0800 -3.3582 -4.0339 -1.4905 -2.9187 -1.1190 -3.0119 0.2505 -1.6182 -0.1214 2.1788 -0.2220 -0.0512 0.5946 0.8416
-5.9158 3.7447 -1.8529 -3.0942 -0.6965 1.4189 2.0701 -6.7482 -0.3471 -0.4948 -0.0167 -9.2527 -3.6305 -1.3662 -2.8257 1.6302 -4.6346 -3.8736 -0.6675 -1.9431 -1.8825 -2.3611 0.1661 -0.4518 1.7909 0.6649 -0.4999 0.4313 2.0965 2.7755
-7.2117 4.4429 -2.4618 -1.7434 -1.1354 1.0951 1.9026 -7.6249 -1.0226 -0.2725 0.2835 -9.7855 -4.6252 -1.2724 -2.0900 1.0312 -6.0272 -4.0332 -0.1310 -1.8796 -1.7351 -2.9998 -2.2138 -0.5753 1.5507 -1.0082 -1.8029 -1.4112 1.0646 3.8462
-4.0683 3.7035 -1.8986 0.4467 -0.4181 1.2937 2.2311 -6.7768 -1.0773 0.5885 1.6910 -8.5695 -4.1258 -1.0136 -1.1187 0.5579 -4.6736 -4.1671 0.1900 -2.0769 0.9762 -2.9209 -2.0964 -0.5669 1.1459 1.9772 -0.3453 -0.7130 1.7175 4.8474
-1.6091 3.4772 -0.7639 1.5063 0.4417 1.0642 2.6766 -5.0641 -0.0810 1.0264 2.3197 -6.8646 -2.6489 -0.5306 -0.7732 1.9535 -1.6757 -3.2199 0.8532 -1.2464 3.4569 -1.2265 1.1475 0.8724 2.0229 5.2756 3.3317 2.7580 5.2327 5.5501
-1.4882 3.8183 -0.5502 2.7617 -0.1048 0.7511 2.9035 -4.7834 0.4530 0.4866 1.6999 -6.1630 -2.1966 -0.2731 -1.3152 3.8730 -0.2505 -1.9016 1.6780 0.7875 3.1692 1.0249 3.6912 3.0119 3.2418 5.5938 5.2126 5.3551 8.2137 6.2567
-0.7272 4.0046 -0.6759 6.0081 -1.1535 1.4271 3.6049 -4.7434 0.0801 -0.2057 1.0907 -5.8424 -1.8171 -0.4003 -2.0811 4.0886 -0.3551 -1.1986 1.9988 2.6786 3.2538 2.8308 3.3511 4.7112 4.4174 6.8489 4.8409 6.0659 8.3990 8.0669
1.2165 3.8632 -0.1497 9.0958 -1.4097 1.5002 4.2390 -3.1294 -0.0545 -0.3973 0.4465 -4.2689 -0.4570 -0.6004 -1.9595 2.6279 -0.2238 -0.3491 2.0714 3.4287 5.8272 4.0266 1.8941 6.0064 5.6405 9.8961 4.7862 6.3383 7.5068 10.0233
1.8395 3.4002 0.0643 8.5432 -1.3070 -0.1258 3.5805 -1.4131 -0.0527 -0.4087 0.2491 -2.0528 0.0241 -0.5988 -0.7293 1.4576 0.0378 0.8654 2.3501 3.7341 7.2144 4.6740 2.0979 6.9893 6.2691 9.8451 5.2867 6.9991 8.0260 10.0210
0.9210 2.8330 -0.6126 4.8087 -1.3837 -0.3967 2.6140 -1.2396 -0.5992 -0.6807 2.2925 -1.4514 -1.1445 -0.6419 -0.1510 1.8311 -0.1537 1.1152 2.1199 3.6729 5.3151 4.5890 3.8682 6.9955 6.0249 6.2026 4.5994 7.8467 9.4735 8.6563
0.7260 2.5381 -0.8616 1.6520 -1.2259 2.0265 2.8220 -1.2236 -0.9908 -1.0710 5.1749 -2.3775 -1.8052 -0.9988 -1.4271 2.8884 -0.2825 0.2214 0.7871 2.1655 3.1084 3.4439 4.2868 5.8406 4.8722 4.0508 2.7013 7.8566 9.4587 8.0597
1.2474 2.7015 -0.0771 1.0143 -0.5676 3.0550 3.3114 -0.1805 -0.6041 -1.1330 5.6184 -2.5495 -1.1096 -1.3623 -2.9271 2.9473 -0.2160 -0.8347 -0.9308 -0.0020 2.4772 1.4048 1.6740 3.7479 2.6024 4.7179 0.9973 5.8812 7.1210 7.8326
0.7580 2.9418 0.6627 1.0274 0.0097 0.8613 2.8116 0.4144 0.0085 -0.9804 4.4609 -1.7456 -0.7876 -1.6987 -3.4504 1.3784 -0.6423 -2.2212 -2.4839 -1.4092 1.8719 -0.9735 -2.4239 0.2964 -0.2098 4.2619 -0.5651 2.0162 3.2559 5.4451
0.1688 2.1868 0.6962 -0.0465 -0.3148 -0.7687 1.7512 -0.3105 0.3815 -1.3013 4.1623 -1.7375 -1.6290 -2.5226 -4.3156 -1.3375 -1.4993 -4.1073 -4.0702 -3.1866 0.3248 -3.2255 -5.1651 -3.9520 -3.0080 0.9701 -2.7277 -2.1201 -0.8270 0.5396
0.6679 0.3542 0.4255 -0.8679 -1.2951 -0.2949 0.7424 -0.9216 0.4728 -2.0323 4.0533 -2.4522 -2.4922 -3.4752 -5.6718 -3.8692 -1.8299 -4.9333 -5.1689 -5.9650 -1.0813 -4.6156 -5.0211 -6.5274 -5.8148 -2.8010 -4.4512 -4.4229 -3.0944 -3.6702
0.1533 -0.6426 0.3431 -0.1439 -1.5753 -0.1686 -0.0878 -0.0848 0.3407 -1.9935 3.4749 -2.5999 -2.5545 -3.4825 -5.7165 -4.7352 -1.3924 -3.9185 -4.9962 -7.5081 -1.5884 -4.8081 -3.6685 -6.5187 -7.7901 -5.4740 -5.0234 -4.7150 -3.1448 -4.9303
-1.7806 -0.0526 0.6637 1.0495 -0.8306 -0.3003 -0.3800 1.9754 0.3989 -0.7970 3.5078 -2.6437 -2.2316 -2.7201 -4.8248 -4.7346 -0.9719 -2.8525 -4.2940 -7.1479 -1.7321 -4.8392 -4.4898 -6.2937 -8.5060 -6.6637 -6.0731 -5.8036 -4.1523 -5.1013
-1.7187 -0.1814 1.1276 1.7312 -0.3118 0.7354 -0.3365 3.5727 0.8020 0.1811 3.5424 -3.3565 -2.2761 -2.3516 -5.1251 -5.9672 -0.9558 -3.0895 -4.2871 -7.0365 -2.0836 -5.4760 -7.3704 -7.7226 -9.6054 -6.1891 -8.3659 -9.1707 -7.8566 -6.4672
0.3413 -2.3045 1.1282 1.9984 -0.4026 1.0620 -0.6717 3.1771 0.8848 0.0859 2.1134 -3.8889 -2.8207 -2.5147 -6.4054 -7.7862 -0.9895 -3.9057 -4.7871 -7.7813 -2.7574 -6.3163 -8.5099 -9.7916 -11.8319 -6.5799 -10.5875 -11.9430 -11.1170 -8.7684
0.6780 -4.2070 0.5087 1.3488 -0.3309 -0.5332 -1.1100 1.6346 0.2086 -0.1970 0.0438 -3.8881 -3.3862 -2.5849 -6.9993 -8.5560 -1.0706 -4.7500 -5.0481 -8.4174 -3.5311 -7.4417 -6.9813 -11.0009 -13.5384 -9.1497 -11.9494 -12.1623 -11.6441 -11.0895
-0.7094 -4.4068 -0.3978 -0.9217 -0.3735 -1.7561 -1.1372 0.3500 -0.7251 -0.4017 -1.3543 -4.5708 -3.6830 -2.5913 -7.0006 -9.4862 -1.6651 -5.5150 -4.8833 -9.3269 -4.0215 -9.1264 -6.1579 -11.1589 -13.9507 -10.1148 -12.3850 -12.2335 -11.6672 -12.6069
-1.5271 -4.4263 -1.2436 -4.0470 -1.0908 -1.6055 -1.1679 -1.0854 -1.2033 -1.1510 -2.4216 -6.1155 -3.6490 -2.5903 -7.2893 -11.6512 -2.7860 -5.3897 -4.2641 -10.8037 -4.4812 -10.3864 -7.6828 -10.5238 -13.9744 -8.8656 -11.9278 -13.5192 -13.1065 -12.4274
-2.3059 -4.9282 -1.6986 -6.3385 -1.5573 -1.5743 -1.3437 -2.6569 -1.1049 -1.5180 -3.2830 -7.0087 -3.0862 -2.0208 -7.3456 -13.1239 -3.9261 -4.4203 -3.4524 -11.2161 -5.0229 -9.7737 -8.9452 -9.3145 -13.6915 -9.2705 -11.0141 -13.5989 -14.2389 -11.2975
-3.3908 -4.6358 -1.9157 -7.4044 -1.3674 -1.9766 -1.3883 -3.3892 -1.0500 -0.5337 -3.0922 -6.7850 -2.2694 -0.9987 -6.1625 -12.5510 -4.9123 -3.9156 -2.9997 -9.2638 -4.7565 -6.8521 -7.2424 -7.9182 -12.4683 -9.9570 -9.7133 -11.1782 -12.7746 -10.8710
-2.8907 -3.6070 -2.5129 -8.3281 -1.7406 -2.0193 -1.5671 -3.7890 -1.5964 0.3478 -1.8880 -6.3895 -1.9284 -0.5639 -4.0383 -11.1819 -5.8750 -3.9544 -2.6541 -5.9359 -3.7276 -3.0715 -3.3905 -6.5552 -10.3917 -7.5995 -7.9671 -8.0867 -9.0898 -10.4701
-0.7917 -2.6477 -3.0477 -8.5367 -2.4973 -1.5892 -1.5914 -4.2567 -2.1505 0.0774 -0.3770 -5.7780 -1.8842 -0.8093 -2.3258 -9.8837 -6.2129 -3.3435 -1.6886 -3.2465 -2.5999 -0.9206 -0.4013 -5.1052 -7.4487 -4.0545 -6.1853 -5.7316 -5.3260 -7.6630
0.7406 -1.3159 -2.2864 -5.8603 -1.9613 -0.8502 -0.5733 -3.4643 -1.6970 -0.1664 1.1384 -4.2058 -1.1699 -0.6366 -1.9911 -8.1316 -5.3236 -2.0012 -0.4492 -2.4664 -0.7156 -1.1100 -0.0118 -3.5751 -3.6126 -1.1022 -4.4677 -4.1278 -3.1338 -2.8145
1.0638 -0.1607 -0.8150 -2.1510 -0.6589 -0.1385 0.7938 -1.7575 -0.6343 -0.0371 1.8954 -2.4203 -0.0631 0.0375 -2.8180 -6.3940 -4.4393 -1.0871 0.0892 -3.4397 1.1375 -2.0880 -1.1203 -2.3658 -0.6168 1.2094 -3.0408 -3.4041 -2.9589 -0.1026
0.4520 -0.6698 -0.6222 -2.1935 -0.4194 0.0776 1.0125 -1.7064 -0.4186 -0.4485 1.2755 -1.9010 -0.1502 0.0283 -3.6311 -6.0732 -5.0747 -1.1908 -0.0848 -4.7159 0.4061 -2.4411 -1.0838 -1.8065 -0.2039 1.4118 -2.4343 -2.8266 -3.5948 -1.5050
-1.4771 -1.5420 -1.7299 -4.9795 -0.7433 -0.0669 0.4220 -3.5623 -1.2801 -1.0433 0.5523 -2.3899 -1.6027 -0.6324 -3.3827 -6.6705 -6.1995 -1.6107 -0.1839 -4.8354 -1.7408 -1.9035 1.1290 -1.5316 -0.8949 0.3552 -2.0974 -0.8753 -2.6447 -2.8560
-3.1938 -0.4800 -2.2424 -5.6521 -0.3863 -0.2488 0.3569 -4.7686 -1.7697 -1.0807 1.2371 -2.1999 -2.4563 -0.5560 -2.3931 -6.0880 -5.8332 -1.4166 0.1893 -3.8512 -1.5401 -0.9602 3.1398 -0.7541 -0.1784 1.5885 -1.0493 1.8524 0.2635 -0.2052
-1.8961 1.2954 -1.5465 -4.7000 0.0223 -0.2679 0.9788 -4.1646 -1.0642 -1.0717 2.6607 -0.7024 -1.5855 0.3126 -1.8987 -3.9881 -4.1039 -0.7005 0.7851 -3.0783 0.9161 -0.2666 2.3765 0.6158 1.7235 5.2214 0.6332 3.1885 2.3005 3.8202
1.2112 1.3509 -0.7193 -4.6177 0.0048 0.4446 1.7262 -3.0018 -0.2336 -1.2211 3.2745 1.2092 -0.3534 0.6539 -2.3189 -1.9224 -2.5660 -0.2835 1.1322 -3.2704 2.8373 0.5038 0.4846 1.6824 3.1974 7.7706 2.4396 3.2055 1.9274 5.1156
2.3645 0.2837 -0.3312 -3.8122 0.3973 1.9270 2.5246 -2.1790 -0.3224 -0.8684 2.9760 2.6907 -0.1353 0.2457 -3.0509 -0.6299 -2.0305 -0.5352 1.0080 -3.5092 3.4407 2.2598 1.1303 1.9384 3.9570 7.6810 4.4307 4.4987 1.9736 4.7004
1.5543 0.2505 -0.0899 -1.9980 1.0930 2.9196 3.5189 -1.1857 -0.8568 -0.2218 2.8589 3.6323 -0.1152 -0.0738 -3.2253 0.2583 -1.8848 -0.9755 0.9481 -2.1262 3.5941 4.5630 4.2084 2.3090 5.0031 7.5370 7.1902 8.5434 5.3000 5.4925
1.1874 1.7465 0.1253 -1.5291 1.0992 2.5520 4.4558 0.2880 -1.0866 -0.0387 3.3760 4.6625 0.8277 -0.1412 -2.1736 0.7306 -0.8345 -0.9002 1.6796 0.7401 4.2327 5.9011 5.9758 3.6090 7.0933 9.8876 10.4491 13.0923 9.5982 7.2545
1.5865 3.4312 0.3938 -1.0147 0.5266 1.5494 5.0052 1.6333 -0.9246 -0.1834 3.4880 6.2608 1.8966 -0.2864 -1.0112 0.3008 1.0339 -0.5197 2.4341 1.9500 5.5521 5.4928 4.2226 4.4529 8.8431 12.6304 12.0028 14.2601 10.2125 8.1395
2.4815 3.8869 0.8199 1.5929 -0.1154 0.6846 5.2260 2.3181 -0.4797 -0.2630 2.0188 7.0426 1.8396 -0.4339 -1.9820 -0.7663 1.7749 -0.9382 1.7034 -0.5070 5.8470 3.8214 0.8854 3.1507 7.9157 12.1967 10.4308 11.7512 7.3092 7.8730
4.0376 2.9676 0.9336 3.3670 -0.7593 -0.2942 4.9824 2.4302 -0.1073 -0.1929 -0.4063 5.5094 0.7233 -0.4225 -3.7616 -1.3858 0.5186 -2.1784 0.2036 -3.3721 3.9395 2.3500 -0.2170 1.2145 5.3088 9.4786 7.9452 9.5161 5.7187 7.2385
4.7366 1.8117 0.3888 1.8071 -0.9564 -1.3486 3.7915 2.4433 -0.2727 0.1654 -1.4555 3.2015 -0.6524 -0.4312 -2.6082 -1.5640 -1.3547 -2.6924 -0.0638 -3.0937 2.0301 2.1574 1.7225 1.0986 4.2061 8.2749 6.9859 9.6192 7.1269 6.0965
3.7271 1.7145 -0.1952 -0.8734 -0.7196 -1.7374 2.3066 2.7014 -0.7303 0.5428 0.3324 2.1754 -1.3382 -0.6167 0.1342 -2.2043 -2.5778 -1.9026 0.5113 -1.7523 1.9310 2.1785 2.7709 1.6808 4.6160 9.3628 6.2550 9.3569 7.7732 4.1377
3.3428 2.3245 -0.3312 -2.1934 -0.9831 -1.4469 2.0072 2.6504 -0.9448 0.5259 2.8930 1.6262 -0.9778 -0.7697 -0.1160 -2.5606 -2.9831 -1.2039 0.1558 -2.3323 1.8899 0.7601 0.0747 0.7299 4.4287 9.0672 3.7089 6.4902 5.4336 2.5863
4.3566 1.9434 -0.4809 -2.3633 -1.5900 -1.1480 2.5149 1.3895 -1.0259 0.4866 2.8682 0.5142 -0.7007 -0.6643 -2.4030 -1.5912 -2.9478 -1.6007 -0.7850 -3.4937 0.3846 -1.2359 -3.1945 -0.7510 3.4602 4.9603 0.4372 3.0905 2.9132 2.0918
4.0193 0.7299 -0.9650 -2.5479 -1.6627 -1.2403 2.2067 -0.3500 -1.2263 0.7220 1.1325 -0.4345 -1.2001 -0.4248 -2.6060 -0.8679 -3.2355 -2.3824 -0.8128 -3.4523 -1.8407 -1.6709 -3.0326 -1.1064 2.3503 0.7022 -1.3018 1.9843 2.5559 0.9984
1.9050 0.4611 -1.2654 -2.8682 -1.5686 -2.0025 1.2074 -0.5155 -1.2710 0.7565 1.0736 -1.1355 -1.2192 -0.2257 -1.2915 -1.9553 -3.9380 -2.5946 -0.1338 -3.0581 -4.1687 -0.8454 -0.9646 -1.2357 0.9924 -0.0731 -1.6158 2.2790 2.5211 -1.2757
0.4133 0.7744 -0.9566 -2.3656 -1.6627 -2.9161 0.4751 1.0525 -0.8708 0.3986 2.1238 -2.2243 -0.3260 -0.0086 -1.0454 -3.2802 -4.3913 -2.2117 0.0999 -3.1737 -5.9973 -1.0322 -0.8644 -1.9354 -0.4255 -0.4463 -2.7653 0.6842 0.3522 -3.1409
-0.2363 0.1564 -0.5015 -1.2846 -1.4698 -2.7362 -0.2414 2.2214 -0.3403 -0.0241 1.8965 -3.1539 0.0691 0.2509 -1.2147 -3.0420 -5.0349 -1.8015 -0.2303 -3.8194 -6.1635 -2.6462 -3.0047 -2.0881 -1.6386 -3.3032 -5.7864 -3.4040 -3.5281 -4.6550
-0.6700 -0.8098 -0.5877 -1.4479 -1.4617 -2.2242 -1.1132 2.1167 -0.2420 -0.4250 1.4622 -3.2916 -0.3440 0.2932 -0.7571 -2.1546 -6.5953 -1.8954 -0.7534 -5.0589 -5.0695 -3.5555 -4.4346 -1.3962 -2.7238 -5.4155 -8.4995 -6.6300 -6.8215 -7.3057
-0.2278 -0.8466 -1.2280 -2.9384 -2.4369 -3.2064 -1.5599 1.7180 -0.6333 -0.8657 2.4525 -2.9520 -0.8904 -0.0681 -0.4740 -1.8009 -7.8755 -2.3434 -1.2706 -5.7290 -4.4002 -2.3054 -2.9659 -0.9898 -3.0778 -4.7930 -8.2578 -6.2135 -7.4068 -9.7947
0.0696 -0.0569 -2.0297 -4.2236 -3.6080 -4.3509 -1.6586 1.0862 -1.0982 -1.2286 3.8524 -2.5259 -1.8024 -0.4090 -0.2335 -1.4024 -7.8451 -2.3659 -1.1741 -4.3909 -4.7202 -0.1203 0.2604 -0.7992 -1.9779 -4.3634 -5.7238 -3.4709 -5.1604 -9.1938
-1.3111 0.7065 -2.6801 -5.4781 -3.9112 -3.3452 -1.9157 -0.2160 -1.3680 -1.3693 4.5862 -2.6236 -2.7297 -0.2545 0.5906 -0.9514 -7.9146 -1.9244 -0.5422 -2.7557 -5.5532 0.5406 1.2879 -0.2171 -0.5824 -5.2854 -4.2975 -2.4344 -3.6813 -6.8530
-2.7457 0.6762 -2.8403 -6.8133 -3.5764 -1.5054 -2.1266 -1.1060 -1.4719 -1.2277 4.5239 -3.7582 -2.5714 -0.0959 0.7341 -1.6949 -9.0942 -2.0353 -0.8469 -3.4260 -5.9863 -0.9642 -1.7159 -0.4371 -0.9865 -5.4583 -5.8864 -5.3163 -6.5290 -7.2394
-2.2838 -0.0134 -2.3913 -6.4278 -3.0705 -1.0260 -1.8496 -0.5933 -1.4592 -0.9663 3.2990 -4.7467 -1.8063 -0.4816 -0.4811 -2.9288 -9.8662 -2.8211 -2.0605 -4.8636 -4.8062 -2.1009 -4.5005 -1.9991 -2.6009 -4.2701 -7.9127 -8.6587 -10.2154 -9.2186
-0.7561 -0.2713 -1.7900 -4.8264 -2.4423 -1.1951 -1.2346 0.2664 -1.2751 -0.9640 1.6459 -3.9213 -1.2971 -0.6551 -1.2072 -2.2901 -8.7319 -2.8555 -1.9794 -4.1431 -2.2000 -0.2960 -2.3691 -2.3596 -2.3447 -2.4809 -6.4328 -7.1950 -8.2458 -7.3005
0.4396 0.3117 -1.5106 -4.6948 -2.1677 -0.8071 -0.7735 0.3140 -0.9337 -1.3029 1.5768 -2.1155 -0.3438 -0.0224 -0.5558 -0.2398 -6.0774 -1.3536 -0.2584 -2.4119 -0.0592 3.2053 2.0402 -0.0854 0.3951 -0.2313 -2.2175 -2.3899 -2.4336 -2.6812
0.9429 1.2375 -1.5397 -5.2020 -2.8737 -0.6680 -0.6476 0.2589 -0.7655 -1.6203 3.2012 -1.4160 1.1435 0.3785 -0.0285 0.6166 -3.2200 0.5597 0.9361 -2.3168 0.5929 5.1770 2.9175 2.1304 2.5355 1.5907 0.3456 -0.4852 -0.2394 -1.0698
0.9565 2.1778 -1.7671 -3.8874 -3.9435 -1.5538 -0.6311 0.6223 -1.1096 -1.6010 4.4425 -1.8437 1.4439 0.0019 -0.0858 0.5474 -1.6786 1.3122 0.7633 -3.1371 0.2773 4.7564 0.6444 2.1957 2.4480 1.7627 0.0473 -2.0354 -2.1089 -1.4844
1.2421 2.4721 -2.0935 -1.8248 -4.0303 -2.2476 -0.5547 0.3519 -1.6100 -1.2389 4.6138 -2.7057 -0.0218 0.0944 0.4560 1.3955 -2.3524 0.6409 0.3798 -2.6314 -0.7128 3.5292 0.3075 1.8172 2.5040 0.8774 -0.4617 -1.8184 -1.9269 0.2119
2.2469 1.6355 -2.1079 -0.8845 -3.1811 -1.6634 -0.3279 -0.3189 -1.5629 -0.7843 4.9777 -4.3484 -1.3293 0.9581 1.3406 2.1257 -4.0461 -0.3550 0.4084 -0.8069 -2.1049 2.9271 3.0920 2.5434 4.6995 0.3461 0.3444 1.7072 2.0451 2.5138
3.1789 1.0603 -1.5734 -0.7426 -2.5159 -0.9350 0.3617 0.3331 -1.0676 -0.5389 5.7519 -5.5027 -1.1443 0.9948 1.1749 1.4555 -4.5693 -0.8201 0.3986 0.6073 -2.7038 2.8203 4.9543 3.2321 7.2914 0.9294 1.5096 4.7226 5.4060 3.1069
3.2610 1.6634 -0.9228 -0.8927 -2.1153 -1.0577 1.2212 1.7883 -0.7776 -0.6189 5.4189 -4.3793 -0.7519 -0.1965 0.3897 0.8709 -3.7960 -1.1386 0.0140 0.3426 -2.2902 1.8709 2.7645 2.6505 7.8031 2.4378 1.7296 4.2413 4.6319 3.5174
2.7456 1.3999 -0.5756 -0.8740 -1.6070 -1.2313 1.0252 2.4353 -0.7591 -1.1307 3.1697 -3.2713 -1.3742 -1.1617 0.2682 0.6215 -3.4835 -1.7564 -0.6585 -1.4532 -2.6778 -0.4473 -1.8134 1.1159 6.2900 2.9191 0.5358 0.9355 0.6245 3.3276
1.9281 -0.5056 -0.5678 -0.2776 -1.6158 -1.3598 -0.1491 2.6601 -0.8621 -2.1682 0.7724 -4.7738 -2.0619 -1.3912 0.1650 -0.9635 -4.2332 -2.4293 -1.4185 -3.1828 -4.5421 -2.5009 -4.3857 -0.4330 4.1936 1.0673 -0.9520 -1.8085 -2.7599 0.7923
0.7321 -1.1467 -1.0474 -0.3811 -2.3049 -2.1141 -0.4427 2.3937 -1.4508 -3.1644 0.8336 -6.2007 -2.1550 -1.5734 -0.9050 -2.7648 -4.7230 -2.9609 -1.9339 -3.2687 -5.8026 -2.5657 -2.8076 -1.2059 2.6837 -0.5021 -0.7349 -0.7435 -2.2593 -0.7170
-0.2455 0.0670 -1.9003 -1.7059 -2.5340 -2.2908 0.4578 0.4483 -2.4824 -3.0709 2.4777 -5.0424 -2.6639 -1.7343 -2.1669 -2.9689 -4.0210 -3.2135 -2.0878 -2.5140 -5.1767 -1.6427 -0.1802 -1.3136 1.9883 0.2529 0.4692 2.1198 0.5486 1.2377
-0.2127 -0.1185 -2.2692 -2.1304 -1.9990 -0.7771 0.8751 -1.7613 -2.9682 -1.8965 2.0223 -3.9055 -3.6162 -1.6823 -3.2269 -3.3640 -3.2640 -3.1059 -2.4696 -3.5029 -4.1429 -2.0797 -1.2210 -1.9796 0.6856 0.4320 -0.6128 1.0032 0.4320 1.6387
-0.0665 -1.8715 -1.6516 -0.9995 -1.5375 0.6170 0.3326 -1.7461 -2.3123 -1.0346 -0.5230 -4.5217 -3.6144 -1.7252 -4.4822 -5.0346 -3.7837 -2.9669 -3.2518 -6.1920 -3.8050 -3.4341 -4.9699 -3.5970 -1.9982 -1.6444 -3.7679 -3.7855 -3.3748 -2.0494
-1.1129 -2.3386 -0.6847 -0.2238 -1.0714 0.2682 -0.4405 -0.3508 -1.1313 -1.1882 -1.6057 -4.5854 -2.5073 -1.4936 -4.7220 -5.7774 -4.5294 -2.7403 -3.3658 -7.0389 -3.3753 -3.0442 -5.8531 -4.6473 -3.8884 -2.7651 -5.0640 -5.8502 -5.6036 -4.7794
-2.5985 -2.0136 -0.2894 -0.4834 -0.2819 -0.4614 -1.3119 -0.2169 -0.3928 -1.3914 -0.9824 -3.6771 -1.6654 -0.4640 -3.2896 -5.5532 -4.2428 -2.3598 -2.6142 -5.2082 -3.0459 -1.3063 -3.2654 -4.2221 -3.9211 -2.3223 -4.1962 -4.5035 -4.4087 -4.9531
-3.7617 -3.0043 -0.7982 -1.1799 0.0005 0.1411 -2.0759 -1.9784 -0.5115 -0.9895 -0.8981 -4.6264 -2.2482 0.2588 -2.4222 -6.8120 -4.3207 -2.9076 -2.4305 -4.6246 -4.5222 -1.6567 -2.7006 -3.5966 -4.8373 -4.4449 -4.9853 -5.4924 -4.3462 -6.4356
-5.3134 -4.5593 -1.6068 -1.9243 -0.2478 1.6933 -2.3319 -3.8572 -1.0591 -0.5936 -1.0148 -7.4258 -3.9542 -0.3093 -3.1103 -8.9978 -5.3236 -4.4160 -3.0094 -6.7745 -7.3595 -4.4644 -6.1323 -3.9067 -7.9264 -9.0169 -8.2668 -10.1793 -8.0584 -9.3345
-6.5817 -5.3556 -1.6112 -1.5169 0.1285 2.5971 -2.5612 -3.9452 -1.0348 -0.4097 -0.5243 -8.6339 -5.0136 -0.8773 -3.3678 -9.8129 -4.6814 -4.6985 -3.0453 -8.3272 -8.8434 -6.1342 -9.1182 -4.7540 -10.6377 -10.5115 -10.7340 -13.9354 -12.5851 -11.4153
-6.3019 -5.5979 -0.7805 0.7500 0.7178 2.0828 -3.1761 -2.8884 -0.1077 0.0070 -0.4985 -7.6538 -4.5503 -0.4046 -2.6466 -9.4637 -2.0520 -3.1213 -2.5982 -7.6152 -8.4909 -4.8071 -8.0262 -5.3804 -11.0627 -8.5071 -10.3149 -13.4711 -13.8357 -13.0651
-5.8971 -5.5895 -0.4055 2.4240 0.4456 1.3218 -3.5219 -3.0541 0.6173 0.3960 -1.1060 -7.2780 -3.7810 0.0030 -2.3854 -8.9038 -0.7366 -1.6970 -2.5213 -6.0855 -8.2566 -2.3634 -4.1919 -5.0090 -9.7163 -8.5158 -8.3862 -10.2112 -10.9779 -13.5752
-6.8256 -5.4129 -1.1804 0.3793 0.1416 1.7100 -3.1302 -4.6974 0.0493 0.4682 -1.1442 -8.2001 -3.7048 -0.3094 -2.4942 -8.0307 -1.4923 -1.6378 -2.1952 -4.2570 -8.5441 -1.1304 -1.5626 -3.4125 -8.0690 -10.6167 -7.2111 -8.3175 -7.8394 -11.8417
-7.7757 -5.2429 -2.4478 -3.9962 0.4552 2.4220 -2.5198 -5.8978 -1.3792 0.7060 -0.5361 -9.0048 -4.2989 -0.6661 -1.9428 -7.3435 -2.2601 -2.5758 -0.9901 -2.5522 -8.5492 -1.9044 -3.0105 -2.1120 -7.6869 -9.8130 -7.3982 -10.2180 -8.8309 -11.0073
