Fp1 Fp2 F7 F3 Fz F4 F8 FC5 FC1 FC2 FC6 T7 C3 Cz C4 T8 CP5 CP1 CP2 CP6 P7 P3 Pz P4 P8 PO9 O1 Oz O2 PO10
-11.4307 3.3257 -10.8270 -2.4373 -1.0242 1.9952 -9.2992 -3.2357 7.4179 0.8546 3.6555 0.7033 -5.5208 -0.9728 1.8951 2.3880 -2.5901 -4.1793 -2.0160 1.2384 -1.0249 -3.8450 -2.5670 -1.0335 0.9531 0.7850 -0.3228 -2.0078 -0.7455 3.2115
-12.7002 -7.5767 -31.6699 3.0484 -1.4022 6.1395 -14.6522 0.7727 7.0929 1.1943 8.4862 -4.9147 -6.7768 -2.2828 3.2796 2.6240 -8.9411 -7.6496 -2.6220 1.0699 -7.0801 -7.7329 -4.6806 -2.3842 0.1484 -4.8752 -5.0343 -4.2438 -0.8235 -0.1921
-11.1117 -11.2543 -37.6275 8.0322 0.2163 6.5164 -10.5014 4.5242 5.9564 0.8996 6.7938 -14.7942 -7.2830 -3.5407 1.8788 -0.6771 -13.2006 -9.8091 -4.0550 -1.3415 -12.0662 -9.8968 -5.5395 -4.6285 -2.8870 -5.9194 -4.8372 -5.2455 -2.1647 -5.2200
-4.3668 -4.7797 -23.4919 4.5049 0.4951 0.9205 -1.7315 2.4693 3.9416 -0.1673 0.2288 -21.4285 -6.5448 -3.8362 -0.0089 -2.0820 -10.5903 -7.9600 -3.9238 -1.9261 -7.8978 -7.1427 -3.1743 -4.2159 -3.7168 -1.9470 1.1676 -3.3459 -2.3452 -6.0546
-0.0299 1.6932 -13.6789 -3.9039 -3.1356 -7.6735 0.1433 -0.9803 2.9431 -1.4767 -2.8684 -14.5681 -3.7288 -2.1554 1.0884 1.4614 -3.4692 -2.5385 -0.3941 2.4052 2.4803 0.1522 2.3386 1.5279 2.3074 3.7200 7.5636 2.4539 2.8617 2.1362
-4.4673 2.6100 -14.1556 -3.8824 -5.3703 -10.5469 -1.5188 2.3985 5.4238 -2.5776 -1.9529 2.6577 -0.1781 -0.6919 1.6735 3.0270 1.2752 0.6970 1.2187 4.1716 5.2292 4.3349 4.3743 4.4422 5.7853 5.4311 6.1668 5.0099 5.5941 7.0747
-13.1878 0.7502 -15.3033 6.1413 -2.8379 -5.7818 -0.2303 10.0051 8.7598 -3.4327 -1.7241 11.4358 1.3903 -1.4580 -1.3213 -1.1171 0.3008 -1.3744 -2.1855 -0.8699 -2.1879 0.6880 0.2409 -0.7282 -0.2547 2.5631 -2.1300 -0.4248 0.1032 0.1047
-17.8587 -1.4806 -20.8247 12.2508 -1.0520 -2.0679 -0.1106 14.1899 8.6643 -3.9040 -2.5294 2.3135 1.0341 -2.3487 -3.9186 -5.2042 -2.5166 -4.1820 -4.9700 -4.9126 -7.3869 -4.5456 -3.1052 -5.5748 -6.0453 -0.2052 -7.6443 -7.1503 -5.6957 -6.5993
-14.1853 -3.6321 -24.5551 6.9566 -3.4429 -3.1575 -3.7915 11.9841 6.3347 -3.7793 -1.8852 -11.3470 0.5372 -1.1655 -2.9218 -6.7706 -2.6780 -2.7330 -3.3012 -2.9405 -5.4056 -4.7731 -1.5386 -3.5615 -4.2964 -0.6455 -7.6653 -8.9094 -5.9527 -4.4887
-2.1489 -5.8497 -6.6924 -3.9530 -6.1534 -2.4107 -10.6008 1.2812 4.6616 -3.1293 2.0910 -12.4681 -0.3792 0.9636 -0.4418 -7.0285 -0.4688 2.4292 -0.4653 0.3142 -2.7767 -1.6464 1.0822 0.1816 -1.8223 -0.1086 -6.8929 -6.9349 -4.3283 -2.5251
11.6567 -8.0945 20.4581 -13.5577 -7.1622 1.9899 -20.2585 -13.9172 2.9753 -2.3902 7.6972 0.1739 -1.8554 2.5773 1.1456 -3.6307 2.6113 7.5518 0.8134 1.1671 -0.9916 1.5581 2.5029 0.7867 -2.9751 0.3686 -4.8576 -3.2246 -2.9986 -5.9222
11.5499 -8.3476 21.6283 -14.2538 -7.5488 3.3906 -24.2068 -17.7831 1.2660 -2.2997 8.1109 13.2544 -1.9179 3.3664 0.6787 0.0669 4.4408 8.2576 0.6053 0.0377 1.8873 3.2794 3.1721 -0.7473 -4.5130 0.0020 -0.5378 -0.6430 -1.8754 -8.9352
-8.8600 -5.9650 -7.2993 -1.2025 -5.7753 0.0159 -15.4724 -3.4355 1.3929 -3.2734 0.5805 13.3520 -0.3405 3.0031 -2.5299 -3.8661 1.8492 3.1049 -1.2474 -3.0060 1.2924 1.7860 1.5495 -3.3055 -6.4092 -2.3349 -0.1886 -3.3506 -3.4695 -9.5871
-27.3903 -3.7245 -38.5858 12.2410 -1.9858 -4.0582 -4.1158 12.7776 1.7929 -4.4812 -7.2821 1.4016 0.4035 2.4565 -5.6849 -9.0153 -2.7448 -2.4686 -2.8919 -5.3145 -3.3223 -0.7230 -0.9797 -4.7223 -8.3594 -4.9835 -4.3158 -7.4813 -6.4796 -9.7276
-21.2205 -1.5287 -44.8292 8.1392 -1.2586 -7.5592 0.1442 14.0008 -0.4558 -4.4342 -8.5429 -8.4966 -0.5894 3.8490 -4.4865 -3.8994 -2.7683 -1.7804 -0.7737 -2.1275 -2.8425 1.1310 0.8910 -1.0978 -4.6453 -3.3076 -2.0809 -3.6757 -4.2544 -6.5111
-3.0328 3.1742 -18.5058 -6.5795 -4.9053 -10.5444 1.5471 3.3763 -3.9151 -3.1892 -6.0045 -6.0710 -1.5931 6.4191 -0.4958 3.7397 1.7237 3.8925 3.8146 4.2103 3.6879 6.4709 6.2232 5.4092 3.8013 2.2012 7.3498 5.5625 2.8708 0.5930
2.8240 8.0612 15.7337 -12.8353 -7.7892 -12.0978 2.6819 -6.7025 -5.2427 -2.6786 -5.3891 3.7929 -1.7208 6.7225 0.5511 1.6348 4.7124 7.5585 5.1343 5.5418 5.4381 8.2532 7.5034 6.8062 6.1189 3.8350 8.8346 6.9867 5.0885 3.5642
-4.1253 9.3150 22.7471 -9.0439 -7.0427 -12.5680 0.1814 -9.6787 -3.7186 -3.5488 -7.1733 6.4499 -2.5492 4.2338 -2.1618 -4.2691 2.6074 5.3643 1.6103 0.1578 -0.4071 3.5012 2.6817 1.0280 -1.2792 -1.3837 -2.1663 -1.8327 -1.5937 -1.7197
-11.4605 7.1283 2.1856 -5.1638 -4.6053 -10.8784 -4.7265 -6.1997 -1.3882 -3.7733 -7.5116 -5.3021 -4.9938 2.0567 -4.1878 -5.2866 -3.5833 -0.1382 -2.2376 -5.6160 -5.6357 -3.0857 -2.5759 -5.2436 -8.7487 -7.7503 -11.2631 -9.0603 -8.8449 -7.7133
-11.7488 2.4156 -17.1189 -4.9780 -2.8210 -5.8904 -8.1319 -1.4829 -0.7678 -2.5571 -5.1343 -17.7156 -6.6989 1.8475 -3.5863 -5.1082 -8.7226 -3.3646 -3.1427 -7.2999 -6.5406 -5.1581 -4.1146 -6.7867 -9.0917 -10.5782 -9.5317 -7.9276 -9.0276 -8.2160
-5.4762 -3.2717 -21.5470 -6.5304 -3.1092 -2.5798 -9.6911 -1.3715 -1.4169 -1.9787 -3.7449 -12.9971 -5.6642 2.5925 -2.5278 -7.1482 -7.8193 -1.9235 -2.4759 -6.1524 -6.4133 -2.2918 -3.0845 -4.9624 -5.7098 -9.2382 -4.1538 -4.2239 -4.8304 -6.1784
-2.4273 -5.7375 -18.4280 -7.8345 -5.0367 -4.4504 -12.5919 -6.5658 -0.9966 -2.3111 -3.5628 0.4871 -4.0640 3.1486 -1.8792 -7.5168 -3.5722 0.8882 -1.8247 -4.2507 -7.2172 -0.2161 -2.0138 -2.6951 -3.2109 -5.3490 -3.3413 -3.8354 -2.5339 -4.4016
-8.0225 -3.2759 -13.2725 -8.3618 -5.4587 -5.7351 -17.7471 -11.8111 -0.0509 -1.5658 -0.6955 0.7072 -4.6821 2.0228 -0.9084 -4.4700 -2.9338 0.5883 -1.5222 -2.5668 -8.3301 -2.5024 -2.5095 -1.7467 -2.3836 -3.5186 -6.2423 -5.4441 -3.6845 -2.8107
-11.9979 -0.0297 -9.9945 -7.6632 -2.6806 -3.0629 -17.9942 -11.9850 -0.0634 -0.6366 0.9609 -11.3971 -6.8102 -1.8777 -1.3296 -2.4180 -6.8592 -3.7328 -3.0641 -3.1267 -9.1276 -6.6528 -5.2761 -3.5559 -3.9992 -5.8531 -8.2501 -6.9376 -6.3628 -4.1730
-7.1924 -0.4900 -15.6103 -4.8724 0.4056 -1.7594 -8.9694 -7.5626 0.2976 -1.6141 -4.4693 -17.1613 -8.2251 -5.5664 -4.2235 -4.9416 -10.6230 -8.8225 -6.3057 -6.0738 -8.7133 -9.0768 -8.5221 -6.6649 -7.1152 -8.0651 -7.7894 -8.4630 -8.5484 -9.3386
-2.6307 -2.5138 -24.9415 -1.6795 0.6988 -4.5423 0.0256 -2.6770 1.5215 -3.2313 -10.7933 -12.1948 -8.0080 -5.2752 -6.4227 -9.5627 -11.3173 -10.4920 -7.6688 -7.6902 -6.9188 -8.6999 -9.2435 -7.6157 -8.2266 -7.6534 -6.4637 -8.9256 -8.8100 -12.3399
-5.4947 -0.4055 -22.0960 -0.7602 -0.5685 -7.7662 1.4196 -0.5827 1.2077 -3.8676 -11.1749 -7.8900 -7.0528 -3.4933 -6.3936 -11.3641 -10.5003 -9.0933 -6.5809 -7.4082 -6.3679 -7.2767 -8.4563 -7.4873 -8.4905 -7.8478 -6.3434 -8.4806 -8.2822 -10.6824
-10.3262 4.0246 -9.9809 -0.4749 -0.3989 -7.7167 -0.5371 -1.5558 -1.7548 -3.8996 -9.2016 -7.6447 -6.9580 -4.4585 -6.6275 -8.6114 -10.3704 -8.9059 -6.8207 -9.1518 -9.0694 -7.8427 -9.8098 -9.9897 -12.2747 -10.4086 -8.8034 -11.0588 -10.6961 -11.4486
-13.1457 3.6804 -9.1043 1.8758 1.2175 -3.6979 -3.9941 -2.5717 -5.6732 -3.2205 -6.8813 -5.1719 -7.4910 -6.0050 -7.0203 -3.7137 -9.7598 -10.3885 -8.7155 -12.1296 -11.8943 -9.9028 -12.3106 -13.2651 -16.7653 -12.4777 -13.0217 -16.5184 -15.9205 -17.5323
-13.9004 -0.0194 -16.7693 3.2757 1.6176 0.1264 -9.8874 -3.1197 -8.3905 -2.0824 -2.7611 -3.9170 -7.2801 -4.3072 -5.2781 -0.5893 -7.2028 -9.2917 -8.6162 -11.3158 -10.6947 -9.5823 -11.4993 -12.4898 -15.3353 -10.8312 -14.7768 -17.6839 -17.2655 -19.4972
-5.7118 -0.5593 -9.7698 -0.4433 -0.0641 -1.5166 -10.4911 -7.1205 -8.6436 -2.1591 -1.7565 -9.2158 -6.9199 -1.1395 -3.3222 -1.2031 -5.1978 -4.9466 -6.4015 -7.7542 -7.4045 -7.0531 -7.5300 -8.8707 -10.0529 -6.7514 -12.3672 -12.7564 -11.9286 -12.8714
9.5387 0.0390 3.8862 -5.5864 -1.4309 -5.7921 -3.8951 -11.1387 -6.9321 -3.1440 -5.8019 -10.3670 -7.2402 0.1728 -3.9126 -4.7424 -5.9284 -2.2342 -5.2070 -6.9141 -7.5319 -6.8189 -4.8048 -7.5255 -8.5849 -6.1096 -11.1480 -9.8490 -7.3455 -8.0698
11.1492 -4.0709 -6.2713 -5.7450 -0.8741 -4.8445 -5.5915 -6.9785 -5.8849 -2.5728 -5.2643 -3.6925 -7.4065 0.0268 -4.5368 -9.0045 -7.6674 -3.7887 -5.1908 -8.7958 -11.7385 -9.7171 -4.8632 -8.7442 -11.5284 -11.8298 -14.4811 -12.9306 -8.7226 -10.7972
-4.1348 -10.4137 -30.8869 -2.6114 0.3279 2.1692 -19.4607 0.7776 -6.9784 -0.1393 3.4669 -6.0708 -7.5315 -0.1677 -2.6045 -10.3717 -9.2099 -6.7180 -4.6075 -9.6618 -15.5332 -12.3283 -5.9684 -9.3337 -13.6393 -19.2463 -17.7339 -16.3181 -11.4861 -13.6131
-13.6999 -11.7241 -35.3062 -0.7070 1.0390 8.4167 -24.2914 3.0868 -7.4262 1.7641 8.6563 -18.8675 -7.9521 -0.4398 -0.7736 -6.7753 -10.8348 -7.9330 -3.8416 -9.1999 -16.3834 -12.7762 -6.7729 -8.8403 -13.0522 -22.1970 -16.9423 -15.7959 -12.1397 -13.6373
-14.6426 -6.9641 -22.1353 1.7052 1.0314 7.7252 -12.6757 1.6575 -4.7860 1.3962 3.2441 -21.7608 -7.2452 -0.5408 -1.2669 -3.0667 -10.8872 -7.1543 -3.2761 -8.3709 -15.3629 -11.0940 -6.1481 -7.6301 -10.8170 -20.0851 -14.2304 -13.2206 -11.9237 -14.0449
-20.8983 -1.0751 -11.7585 4.5860 -0.6247 -0.0771 -3.7854 -2.0551 -2.1576 -0.6482 -4.5857 -13.0145 -5.7479 0.0283 -1.9082 -4.6475 -8.6403 -4.7298 -1.6006 -5.9593 -13.2483 -7.6232 -3.3349 -4.4118 -7.0325 -16.4238 -12.2352 -10.6410 -9.2543 -11.6332
-22.5109 3.5099 0.3344 0.9983 -3.2450 -8.8297 -3.8981 -9.4069 -2.8426 -2.2869 -7.5144 -9.2805 -5.5942 1.0495 -1.2415 -7.5400 -6.9028 -1.1472 1.1083 -2.2442 -9.9992 -4.0856 0.2127 -0.0653 -2.8857 -11.6458 -9.5787 -7.8458 -3.2844 -5.0170
-10.4168 6.9701 11.2506 -7.6778 -3.7830 -11.9164 -1.3988 -12.2284 -4.3047 -2.2069 -8.0907 -10.3873 -5.5636 2.3787 -0.9942 -6.5509 -6.4087 1.4100 2.6431 -0.4866 -5.8833 -1.9431 2.1151 1.9590 -1.1411 -4.4186 -4.1337 -4.6957 0.0877 -1.9838
-4.9746 7.0141 -1.0849 -9.4287 -2.2208 -9.6226 2.1457 -4.6003 -3.2106 -1.3783 -8.7370 -5.2194 -3.1708 3.5942 -1.4887 -3.7757 -4.1946 1.0555 2.2645 -1.2396 -1.2050 -0.2261 2.0671 1.2648 -1.2324 -0.2018 1.9713 -1.7858 -1.7149 -3.8602
-9.6134 2.2962 -24.9687 -3.7455 -1.9058 -6.4810 -0.0370 3.3982 -1.1138 -1.0798 -6.8436 1.0737 -0.2548 3.7612 -0.3574 -0.3774 -0.8895 -0.4402 1.9691 -0.7422 1.6462 1.0061 1.4363 0.8684 0.3243 -3.9468 3.5003 -0.2338 -2.5295 -2.5264
-0.9973 -3.7858 -25.8569 -1.1010 -2.5248 -2.8858 -1.4268 4.0152 -0.5618 -0.6277 -1.0567 -0.4483 0.2229 3.1569 2.4331 4.4916 -0.7677 -0.5907 2.4290 1.5556 -1.2494 -0.7933 0.0786 0.7762 1.9724 -9.1860 -1.9867 -2.2469 -1.2356 0.2593
12.1983 -7.5521 -11.4041 -1.1193 -0.8347 3.1395 -1.0727 3.3057 -0.7467 0.8168 5.8680 -2.2222 -0.4405 2.9880 4.0255 7.0775 -2.7673 -0.2291 1.7823 1.8293 -7.9305 -4.5583 -2.7292 -1.1616 -0.8003 -10.1959 -10.1880 -7.6313 -3.6742 -4.0956
3.3803 -7.8946 -10.2917 0.8660 1.6535 8.0811 -7.9553 4.0688 -0.8077 1.9666 10.1791 1.0087 0.2811 3.4442 3.9809 5.5687 -1.9527 0.0473 0.6414 0.7435 -10.4433 -5.1192 -4.3087 -2.2783 -4.2541 -9.4910 -13.2781 -10.6609 -7.1424 -9.6877
-11.9185 -4.6315 -13.7057 0.2903 0.8608 6.4668 -15.3215 2.6189 -2.1734 1.1784 9.6055 0.4444 1.8979 3.9762 3.7463 4.4809 0.9440 1.9508 1.5267 2.2208 -5.9797 -1.5737 -1.6791 0.6009 -1.5404 -5.9576 -8.3352 -7.0434 -4.3861 -5.6154
-7.5750 1.3208 -0.6599 -3.1365 -1.7912 0.2914 -7.7430 1.4822 -4.3728 -0.8620 4.2810 -2.9586 3.2607 4.1641 2.4761 5.8310 2.3721 4.7344 2.9333 4.5358 -0.0393 2.0294 2.5026 3.6224 3.7963 1.0087 -0.4619 -0.5767 1.0876 2.3151
4.5787 6.5908 17.4321 -2.6895 -2.2803 -4.1702 8.5951 3.5301 -4.5541 -2.3535 -2.7359 1.2507 4.4277 3.5215 -0.3223 6.4748 3.0867 5.3195 2.0813 4.1356 2.3113 3.2866 3.6102 2.7751 4.5217 2.4530 3.0496 2.3408 2.4298 3.6434
7.8749 7.1161 18.2912 -0.9789 -1.6902 -5.4488 13.8147 5.0061 -2.7552 -2.9050 -5.9178 5.7836 4.8000 2.2588 -1.7122 5.6251 3.8152 3.9350 0.7878 2.8266 1.7514 2.5852 2.0779 0.8575 2.3412 -3.4212 0.0841 0.3625 0.9446 1.3701
7.9168 3.2748 4.5349 -5.1136 -2.7899 -5.2135 3.7948 4.0402 -1.1457 -2.7105 -1.8269 -1.4098 3.7948 1.8275 0.1822 6.9921 2.6802 3.6890 1.6057 3.1672 1.0850 1.4646 1.5794 1.1240 1.9937 -5.5499 -4.2863 -2.5880 -0.4904 1.5177
7.3218 0.0532 -5.3207 -10.3984 -3.3413 -3.2800 -7.9099 2.4554 0.6772 -1.7449 4.1469 -8.2747 2.4590 2.6804 2.1715 9.6508 0.3244 4.6888 2.4386 3.0439 -0.7059 0.7637 2.4184 1.6212 1.6037 -2.9482 -5.3494 -3.5227 -2.9381 0.9173
-2.7097 -0.4282 -6.9492 -5.5010 -0.5365 -0.0880 -9.7370 3.2222 3.5659 -1.2796 3.1042 -1.4075 1.8568 2.7254 0.0753 5.3020 -1.4259 3.0918 -0.0380 -1.0564 -6.7024 -1.4739 0.8877 -1.3281 -3.2344 -6.7962 -7.0321 -5.8607 -7.8492 -5.1821
-19.9193 -0.5489 -8.9826 9.0803 3.0046 1.8189 -3.5615 8.2671 5.2021 -2.3636 -3.2922 5.6617 1.4492 0.4129 -5.0953 -5.3555 -3.5821 -2.2644 -4.6245 -7.8867 -14.1443 -6.0422 -4.3051 -7.4059 -11.0438 -17.2633 -13.8757 -12.8072 -14.4521 -13.6862
-24.7417 -1.1528 -9.4685 17.6565 3.8601 1.5894 1.9375 10.4574 3.3147 -3.2043 -6.2084 -0.1832 -0.1478 -2.0358 -8.2476 -8.7472 -6.1606 -6.4280 -6.7818 -11.2555 -16.3998 -9.3297 -8.7850 -11.4199 -15.4099 -22.1303 -19.8743 -18.2934 -18.7802 -17.2884
-8.1073 -0.6688 -1.6341 10.1456 2.9002 0.5851 3.0184 2.7439 -0.3960 -2.1210 -4.2282 -8.1174 -2.8891 -1.4589 -6.7960 -2.3170 -6.4488 -5.4134 -4.6809 -8.1955 -12.7605 -9.0234 -8.4711 -9.8119 -13.6030 -16.3558 -17.4734 -15.4599 -17.1945 -14.2687
10.4592 1.3789 8.4818 -3.6835 1.9217 -0.3501 1.1307 -6.1097 -2.4412 -0.5160 -1.4982 -8.1124 -4.6400 1.3187 -2.8714 1.1703 -4.3724 -1.7456 -1.0839 -3.2797 -7.3570 -6.6710 -4.7085 -5.5373 -9.1247 -7.2814 -9.1084 -7.8336 -12.1448 -9.4865
13.0513 3.2734 12.4485 -10.6711 0.7593 -0.5680 -1.8203 -6.7396 -1.7007 0.0935 0.5118 -3.1605 -4.0691 3.1464 0.4516 -1.7300 -2.3101 0.9241 0.9220 -1.0060 -1.5692 -3.1515 -0.8342 -2.6183 -5.3504 -2.6485 -1.6775 -2.5502 -8.4307 -6.2900
8.2417 3.0461 11.1492 -9.6969 -0.2151 0.8630 -2.1171 -3.4744 0.2225 0.2504 1.1411 3.7825 -2.2652 3.5633 1.9337 -2.3170 -0.5768 2.2762 1.0465 -0.5398 3.9318 0.7821 1.3553 -1.3019 -3.6375 -2.8345 0.6779 -1.5695 -7.0037 -4.9473
6.5292 1.3935 7.3909 -4.6451 0.3114 2.8725 2.3324 -0.3649 1.5107 0.4148 0.0623 6.2183 -0.7522 3.6483 1.8101 1.3019 0.4578 2.4366 0.6279 -0.5411 5.3447 2.4176 1.0288 -1.2881 -5.3893 -4.6014 -2.3065 -3.6035 -7.3159 -6.1006
3.7507 -0.1725 -1.0553 0.0925 1.4878 3.2391 3.9533 3.6569 1.8900 0.4118 0.1990 -0.5392 0.2548 3.1735 1.5081 2.9388 -0.0165 1.7743 1.1986 -1.0058 2.1723 2.0355 -0.2063 -2.0366 -7.8504 -5.4890 -5.5241 -5.3041 -7.9721 -7.2121
-1.8877 -2.6020 -15.3410 -0.4783 1.0751 2.9793 -4.9229 6.2459 2.2955 0.8933 4.0428 -4.2769 1.4134 2.7861 2.8875 0.5439 0.4238 2.4828 3.5170 -0.0357 -0.4448 3.0850 1.1885 -0.7565 -4.7157 -4.1572 -3.5530 -2.8827 -5.2861 -3.6672
-6.0755 -5.2360 -24.3174 -3.2248 -0.3708 4.7830 -14.4664 5.8096 3.6870 2.0692 8.4239 1.2805 2.4171 3.7093 5.0969 -2.0293 2.2470 4.2366 5.6615 3.1546 -1.5570 4.2277 3.9285 2.2510 1.9293 -2.0596 0.5197 0.9012 -0.6400 0.6600
-9.2744 -3.3274 -15.2531 -0.0171 -0.3786 6.4301 -8.9282 5.6876 6.5508 2.2676 7.0291 2.0522 2.2780 4.3212 4.4940 -2.7227 1.3793 3.4325 4.4443 4.4152 -4.2273 1.7196 2.6432 2.0069 2.4043 -1.9678 0.3345 -0.3049 -1.3119 -1.7814
-11.8084 4.1162 3.2038 5.2589 0.7194 3.2937 6.2396 5.9332 9.8210 0.6953 -0.5493 -4.9717 1.4564 3.0128 0.8989 -2.9035 -1.6011 0.6207 0.8759 1.5935 -5.7124 -1.6386 -1.9165 -1.4791 -2.8030 -1.9549 -3.0801 -4.7007 -6.4488 -5.8902
-7.7990 10.0361 13.4006 2.1696 0.8604 -1.9484 12.3084 1.8266 10.0580 -0.6261 -5.7922 -7.3893 0.2526 1.6430 -0.8482 -1.0399 -2.7384 -0.0736 -0.4597 -0.3289 -3.4169 -1.7148 -3.8086 -2.1888 -3.4323 0.7126 -4.5031 -5.1133 -7.0534 -2.4271
3.1574 8.6407 14.4094 -5.9514 0.7691 -1.9972 6.7987 -5.2128 5.7087 -0.2566 -3.1989 -4.3983 -2.3115 1.6388 0.7907 4.1293 -3.6317 0.6259 0.7596 1.2635 -2.4461 -1.0094 -2.6089 0.0269 0.5325 1.6358 -2.4305 -1.3740 -2.6121 2.4456
10.2638 3.3586 11.4002 -8.3317 1.8885 2.5294 1.1624 -7.1114 1.4436 0.3041 0.7269 -1.8544 -4.7016 1.7150 1.2853 5.5782 -5.6640 -0.4848 0.3547 1.3641 -4.5886 -2.2411 -2.4351 -0.4963 0.4484 -2.7519 -0.1232 0.4321 -0.6191 -0.2936
6.8052 0.6061 2.4391 -5.2780 2.4557 4.4398 -0.8963 -2.9397 2.1051 -0.4349 -0.8016 -1.1239 -4.0289 1.2081 -1.3417 -0.1266 -5.5366 -1.9904 -2.1700 -1.6602 -4.5704 -3.3347 -3.8429 -3.5184 -2.5933 -6.7164 -1.5610 -1.9479 -2.4648 -3.7647
-1.3645 1.2709 -8.6026 -2.9937 0.9737 2.3127 -3.0602 -0.2235 4.8384 -1.6705 -3.7342 -6.4709 -1.8593 0.6131 -3.6045 -2.7138 -3.9940 -1.9482 -3.5200 -2.8476 -2.2906 -3.2839 -5.0838 -4.7064 -2.6645 -5.3676 -5.3754 -4.7817 -4.4464 -1.5785
-6.4883 1.9204 -13.7360 -1.1215 -0.2929 0.3390 -5.3102 -0.6987 4.4649 -2.2653 -3.2971 -16.2765 -1.3633 -0.3943 -4.1651 1.3251 -4.6576 -2.3990 -3.8067 -2.3986 -2.5404 -3.9803 -6.4770 -5.4202 -3.0451 -2.7876 -7.2764 -5.7055 -6.4664 -1.5821
-5.5885 0.5782 -13.7963 2.6529 0.8180 -0.2420 -4.4919 0.4055 2.3613 -2.4566 -3.1602 -16.7440 -1.5378 -1.8273 -5.4795 -0.0252 -5.1887 -4.2264 -5.5039 -5.0910 -4.3557 -5.4400 -8.2629 -8.4124 -6.8836 -3.6789 -7.8311 -6.6969 -9.1516 -6.6939
0.5874 -0.5683 -7.5209 4.8948 3.0518 0.1157 -0.6050 1.3311 2.6474 -2.3865 -5.3418 -4.6040 -0.8819 -2.3949 -6.8702 -8.1301 -2.5095 -4.5314 -7.0425 -8.0525 -3.5625 -5.1714 -8.4379 -9.9037 -7.6593 -6.2236 -8.1957 -7.5633 -9.3337 -7.7622
5.8555 0.9808 6.9652 1.7666 4.0680 2.4591 1.5098 -2.3436 4.6307 -1.3001 -4.4916 5.1178 -0.7349 -1.7575 -4.8896 -9.6150 0.1251 -2.0541 -5.1940 -5.2050 -0.9955 -2.3355 -6.0548 -6.3733 -2.6015 -6.1274 -6.3197 -5.9931 -6.3582 -3.5620
3.0547 3.3854 12.2652 -2.5969 3.2179 4.5911 -0.2158 -4.3688 5.2430 0.2319 -0.3520 3.4178 -0.9793 -1.4343 -0.9504 -3.5752 -0.2546 -0.0171 -1.6783 0.0632 0.2523 0.3532 -3.5181 -2.0992 0.3931 -2.4412 -4.0650 -4.4526 -5.3357 -2.5458
-6.2918 3.8659 -3.9462 -1.3356 1.6965 2.5825 -1.1113 1.6170 4.3001 0.2889 -0.0036 -1.1079 0.2256 -1.9743 0.4306 -1.4700 -0.8128 -0.9285 -0.3163 0.9520 -0.1587 0.6024 -2.8252 -1.5017 -1.6694 1.3403 -3.7544 -4.7240 -7.1195 -4.4182
-13.3163 2.2749 -19.5594 3.3977 0.8475 -0.6423 -0.9634 6.9715 3.6801 -0.7206 -2.1468 0.4913 1.8406 -1.7037 0.1538 -3.7679 0.8718 -2.2129 -0.3588 -0.6459 -2.2260 -0.0699 -2.7411 -1.9288 -1.8437 0.8940 -2.0366 -2.8280 -5.8729 -2.9694
-11.4050 -0.6558 -15.3820 4.1351 0.6641 0.2789 -3.7993 3.4183 4.8195 -0.4808 0.6542 2.4122 1.4144 -0.1242 1.7929 -1.3933 1.4227 -1.3779 0.7494 0.0768 -5.5342 -0.5926 -2.3449 -0.8052 0.7816 -3.4639 -0.0955 0.0633 -2.2865 -1.4357
-1.5411 -3.0623 -5.9419 0.7498 0.7570 3.3513 -3.9896 -1.2483 7.6388 0.8285 4.5615 -5.5811 -0.6536 0.6695 3.5444 5.3156 -2.3785 -0.9761 1.9148 0.8886 -6.4917 -2.8610 -2.9535 -0.9339 -0.7609 -7.1418 -3.7537 -2.6360 -3.9288 -5.0686
7.7794 -3.5291 -5.9208 -1.8209 1.1627 4.8161 1.9372 0.8997 10.0567 1.4887 3.1065 -17.4910 -2.1062 0.0917 2.7462 5.8796 -6.7953 -2.4685 1.6922 -1.1978 -4.3896 -5.7812 -4.2816 -3.2094 -5.3297 -7.6377 -8.9147 -7.9875 -9.9565 -8.9358
5.1664 -3.8015 -9.8941 -1.9040 1.2488 5.8243 1.9142 4.8214 10.0318 1.7453 2.1952 -16.7997 -1.7138 0.1708 1.9158 -2.2818 -6.6071 -2.5751 1.6726 -2.7030 -3.7447 -4.9844 -3.9961 -3.7677 -5.6797 -6.3968 -7.8552 -7.5272 -12.2705 -8.2493
-9.5396 -4.4434 -12.8257 1.2911 0.5348 6.4321 -6.4806 5.2473 8.1884 1.9219 4.9111 -3.8858 0.3099 1.3244 2.3408 -7.6938 -2.4148 -0.3629 2.5769 -1.1967 -3.7748 -0.7001 -1.8405 -1.6523 -2.9754 -4.9616 -3.6644 -2.6736 -9.6110 -6.9097
-17.3758 -3.6988 -13.2125 6.7962 -0.2604 4.2463 -6.3660 4.2826 6.5096 1.0372 3.5102 5.0613 3.1224 2.2164 1.6365 -2.4495 2.8052 1.8909 3.5223 0.9466 0.2197 3.1459 0.9609 0.7275 -1.3097 -2.7392 -0.6562 1.0684 -5.8256 -6.4961
-6.4642 -1.5304 -5.4515 7.0584 -0.8763 0.5038 4.7232 3.3097 5.6703 -0.2435 -1.7211 4.8930 5.5841 2.9667 0.7744 6.1197 7.0353 4.5877 5.2619 3.4446 3.8085 5.5193 4.1641 3.7456 1.7473 1.5039 3.4325 4.1550 -1.2485 -2.5282
5.7084 1.4742 7.8857 -1.5943 -1.4883 -1.7020 8.6555 0.9929 5.2281 -0.1432 -2.3290 2.6641 6.3287 4.0635 2.0334 7.6226 7.6439 8.0886 7.6215 6.3073 1.0152 6.7436 6.4853 7.3561 5.9663 6.2425 6.2351 5.8495 3.1263 3.4874
4.0027 3.7730 16.5775 -9.9835 -1.6629 -2.1066 0.5687 -2.8979 4.9741 0.5993 0.4727 1.3373 4.7708 4.7639 2.6200 1.2297 4.7299 9.5365 7.7619 5.5703 -1.7687 6.1579 6.1158 7.6783 5.7412 7.3316 3.8577 3.6836 3.2009 4.1015
0.6171 2.4800 20.2488 -10.3189 -1.5559 -1.7251 -5.7569 -7.7712 5.0460 0.0134 0.0218 0.3375 1.9960 4.7202 0.0059 -5.6732 2.1607 7.9934 5.2669 1.2728 1.2190 4.4713 4.2557 4.2912 2.1125 3.7298 2.5529 1.9408 -0.0809 -0.3886
5.0464 -0.6817 20.7632 -7.4880 -1.6931 -1.4660 -4.3231 -11.1472 5.5002 -1.3542 -2.5894 -0.4140 0.0024 4.5750 -2.7714 -5.2091 1.0643 6.0667 3.1276 -0.5900 3.1732 3.1353 3.2207 2.1267 1.1095 0.0858 6.4269 3.9617 -0.9011 -2.3461
9.2442 -1.4994 11.7897 -7.3990 -1.8800 -2.5483 -1.5258 -8.9985 6.0442 -1.5092 -3.3098 -1.2072 0.3783 5.0026 -2.8576 1.3429 0.4657 5.7849 2.8100 1.2135 0.4449 2.7273 3.3528 2.9388 2.6108 0.8429 7.8059 4.6307 1.6917 0.2098
9.9993 -1.1811 -2.5503 -7.8242 -2.1445 -4.2748 0.1495 -2.7627 5.9789 -0.5530 -3.2279 -0.4357 2.5183 5.9486 -1.7246 4.3094 1.1065 6.7659 2.9688 2.1761 -0.8972 3.3640 3.9072 3.6386 3.1106 3.5437 2.7244 1.3612 3.2299 2.0965
10.4025 -2.3986 -7.2116 -5.9290 -2.5199 -4.2850 2.9096 0.8464 4.7483 -0.3284 -4.8891 1.4686 3.4341 6.2214 -1.6669 0.3971 1.5226 6.9337 2.0844 0.4418 -0.2561 3.7634 3.8852 2.5650 2.4873 2.5942 -2.1525 -0.9336 2.3158 0.7711
8.3144 -3.3975 -2.1162 -2.8777 -2.0857 -3.0397 5.0320 -0.2440 2.7282 -1.3473 -7.6088 2.2596 2.2320 4.8447 -2.9705 -4.4131 0.1244 5.2826 0.4878 -2.2089 -1.5990 2.9227 3.0428 1.1293 2.1631 -0.5446 -1.7537 0.9126 2.6623 -0.1620
2.8119 -1.6359 2.9660 0.0759 -0.4040 -2.5516 4.6752 -1.7799 1.0827 -2.1336 -8.9401 5.9033 1.9316 2.5665 -4.0771 -7.0304 0.5911 3.7220 -0.1750 -3.6721 -1.4036 2.9075 2.5769 0.6617 2.3737 0.3439 1.4200 4.1236 5.2038 1.4851
-3.6635 1.8469 3.8250 2.3013 1.4034 -1.7201 3.7535 1.0598 0.4215 -1.6705 -7.4145 11.5276 3.7981 0.6842 -3.3960 -8.3595 3.6949 3.1020 0.1086 -3.3815 2.8721 4.4210 2.4058 0.5382 1.7096 4.4865 2.9505 4.2759 4.9224 1.5585
-10.6364 3.0165 -7.0931 3.5047 2.0747 0.1665 2.9141 9.5335 0.1684 -1.0479 -4.7005 7.0792 5.3812 -0.2116 -1.9481 -7.4044 3.8081 1.5005 -0.2988 -2.9936 4.2489 4.3389 1.2162 -0.1960 -0.5485 5.9873 2.1230 1.2538 0.9714 -1.4490
-15.0064 0.5859 -26.2090 4.1757 1.5512 0.3469 1.2081 15.8684 -0.0988 -1.2927 -4.0259 -4.1783 5.2286 0.1388 -1.5839 -4.4578 0.8706 -0.3279 -0.9227 -3.0007 0.3644 2.4636 0.3140 -0.3392 -1.1530 3.8482 1.0189 -0.0253 0.5780 -1.0195
-11.6878 -1.0043 -25.0316 2.7634 0.7203 -0.8143 -1.3695 9.3500 -0.1363 -1.1717 -3.9201 -3.8005 3.4919 1.0365 -1.1843 -2.3297 0.1142 0.3136 -0.1888 -1.5914 -0.9802 1.7003 1.0439 1.0206 1.5690 0.6779 -0.2925 1.7467 4.7931 3.4793
-3.1673 0.2060 1.0042 -1.6367 0.7357 1.2421 -4.2443 -3.7405 -0.1165 0.3164 -0.1029 3.5919 0.2996 0.6213 0.5802 -1.1314 0.2698 1.2290 0.4622 0.3120 0.9031 0.5420 0.5508 1.3914 2.7322 -2.5903 -3.6779 0.8905 4.4824 2.5926
2.7692 0.5506 15.3344 -3.9808 2.0843 6.0689 -4.4982 -5.7473 -0.0319 1.8278 5.0350 -0.2820 -2.1562 -1.2162 2.0884 0.4784 -1.7819 -0.8824 -0.6458 0.0841 -1.9382 -3.2667 -2.8098 -0.6949 0.0629 -5.6415 -8.1117 -4.4700 -1.9271 -3.8221
3.1294 -0.2432 6.5608 -1.4084 3.2790 8.1363 -0.7001 2.6934 0.8341 2.3600 6.0703 -6.8455 -1.2852 -1.8172 2.3995 1.0850 -2.3247 -2.8924 -1.5758 -0.7717 -6.9607 -5.3272 -5.0735 -2.2759 -1.4218 -7.1518 -9.3863 -7.8490 -5.1592 -5.1655
1.7858 0.0090 0.6293 0.4952 2.1077 5.8695 1.9672 6.1861 2.1776 2.3347 4.3850 -1.3467 1.2571 0.2790 2.4701 0.0591 0.7868 -0.7361 -0.4642 0.3201 -4.4995 -1.5632 -2.9966 -1.0503 0.7022 -5.3530 -4.9468 -4.7210 -2.6496 -1.0628
3.3383 -0.8560 1.7746 -0.4625 -0.7638 1.8301 2.0312 2.9714 3.0176 1.5985 2.6468 4.0368 2.4963 3.2136 1.9926 1.0990 2.8202 3.1862 1.7111 2.0970 2.4575 3.9602 1.2084 1.6122 3.4167 -0.1961 2.5220 1.6273 0.3250 0.9113
6.2025 -3.2078 -3.3916 0.8848 -1.9866 -1.2468 5.1185 1.4801 3.7950 0.5803 -0.2222 1.3378 2.6745 4.5708 0.8406 5.7807 1.6164 4.4704 3.4562 2.6535 4.1044 5.4478 3.4597 3.4109 4.8074 3.8674 6.0458 5.0413 2.3107 0.8540
4.6119 -2.8213 -5.6618 4.5215 -0.0019 -0.1986 8.5164 1.8404 5.2822 1.1425 -1.6624 4.0952 2.8456 3.9052 0.6317 7.7627 0.6947 3.1096 3.4568 1.7747 0.4886 3.0304 1.8976 2.5753 3.8594 2.0491 1.4527 2.0512 1.9130 0.1311
-1.2115 0.5261 5.7883 4.7301 2.8327 4.0300 4.8562 0.7007 6.8814 2.9016 1.4560 10.0431 2.9893 3.1857 1.3665 2.6569 2.0474 2.4927 1.7908 -0.1433 -2.3351 0.7330 -1.2085 -0.0565 0.2158 -2.1649 -5.2886 -3.9065 -3.4669 -3.2928
-2.8267 2.8664 18.1864 0.3975 3.1432 4.8407 -0.3532 -1.5386 7.6446 3.2778 4.1350 4.1542 3.4525 4.8512 1.7909 -1.7867 4.0941 4.9510 1.9435 -0.6540 -1.4570 1.4083 -0.7859 0.2162 -1.0741 -1.0168 -4.1787 -4.0437 -6.5849 -4.3770
3.9728 2.5209 18.6158 -4.8636 0.8264 1.4254 0.8303 -4.0205 6.7885 2.3602 2.3007 -3.9264 4.2704 7.7366 2.4374 1.6353 5.3259 8.7210 5.6266 2.5373 2.3966 4.5778 4.1055 4.9724 3.9943 4.5766 4.1980 3.5633 0.1255 1.8655
10.2244 0.8591 10.6240 -7.6106 -0.9354 0.3280 3.4339 -4.4619 3.7731 2.1631 0.4618 0.9648 4.5437 8.2043 3.4888 6.3495 5.7692 9.8564 8.4295 6.2428 5.6664 7.2754 7.8223 8.6439 8.9352 7.4961 9.5824 9.5844 7.3195 7.1845
6.4897 0.9485 4.3213 -6.8674 -0.4721 2.2420 2.6702 -1.1031 0.2762 2.4913 1.4099 8.4181 3.8681 6.5029 3.8709 5.3833 5.5193 7.8639 7.3572 6.3573 5.4324 7.2038 7.0043 8.1388 7.9267 7.6463 7.5389 8.2880 5.6148 5.7727
-2.0942 3.8615 5.2832 -4.6806 0.3757 2.5647 3.3851 1.9600 -0.6975 2.1860 1.4040 6.0212 2.5958 5.8115 3.7885 2.8954 4.0997 5.8287 5.8492 4.6574 4.0338 5.3385 5.3103 7.5872 6.7581 9.2186 4.2312 6.0478 3.7317 6.4035
-5.7133 4.9710 6.7643 -2.3805 0.2274 1.7014 6.7044 2.3153 0.5759 1.4433 -1.1351 0.1722 1.6195 5.7335 3.1666 2.0126 2.4914 4.6686 6.1133 3.4693 5.2416 4.4686 5.6078 8.4771 9.0131 9.7448 5.9981 8.6919 8.3068 11.9238
-3.8527 0.4024 -1.2857 0.4537 0.2559 2.3246 6.1712 4.6120 1.3030 0.9230 -2.0441 -0.3942 2.1925 4.2176 1.4042 -0.2652 3.0016 3.2733 5.8697 1.7834 6.9520 5.3548 5.9837 7.5540 8.7789 5.9520 10.7439 12.2830 11.1105 12.7153
1.0918 -5.8349 -10.1736 1.6802 1.0228 3.6468 1.2731 8.1417 1.4356 1.2650 1.5004 3.6352 3.8444 2.9797 0.7909 -2.5745 5.2779 3.1116 4.9835 0.9930 4.3621 6.2396 5.5700 6.1339 6.0555 2.2921 11.7620 11.8876 9.6174 8.6669
8.2575 -7.3631 -0.9533 -0.5511 1.2603 4.2129 -0.1939 4.3721 2.3219 2.4869 5.2758 6.9189 4.0032 3.7090 2.7948 -0.4717 6.1398 5.2498 5.3868 3.1510 -0.4006 5.9261 5.5492 7.5643 7.0925 1.5985 7.7705 8.9844 10.6104 8.1955
10.7811 -3.1423 19.9814 -2.7704 0.5085 3.5397 4.1331 -4.8354 2.4610 3.1025 4.2798 5.7362 1.9851 3.7323 4.0541 5.3329 4.0844 6.1661 5.8746 5.0516 -0.6920 4.9956 5.4006 9.0635 9.5931 0.4590 4.5470 7.2336 12.3773 10.0604
2.0700 2.3749 22.5907 -1.8934 -0.4432 0.9819 6.5474 -6.1200 1.0674 2.2497 1.3253 0.8303 0.6364 1.6063 2.7924 10.4400 1.0403 3.8264 5.0441 4.3460 3.6739 4.7617 5.1840 8.1194 8.8465 0.6193 6.7028 8.7469 10.5715 10.2159
-8.1353 3.1774 2.0203 0.2266 -0.9725 -1.8777 2.9549 2.1288 1.0726 1.2339 1.4692 -3.3991 1.8657 0.3210 1.6793 10.5195 0.2852 2.0005 4.2931 3.7082 7.7532 6.3583 6.3888 7.5369 7.8313 6.2134 12.4753 13.0393 9.7113 10.6642
-4.4280 -1.3977 -8.8528 1.5116 -0.4666 -0.9277 0.0517 7.3962 3.1493 1.0914 3.6383 0.0515 4.0752 1.0812 1.7352 5.8792 3.5090 3.3092 3.9063 3.8561 9.7811 9.3001 7.4923 7.7540 8.0844 10.7801 16.5697 15.7163 11.1541 10.3975
7.1112 -4.3096 4.8383 1.4930 0.8615 3.6589 1.9161 6.3796 4.0426 1.2087 5.1600 11.7604 5.5947 1.8159 1.8580 3.2650 8.5742 5.5901 3.1065 3.5414 9.8731 11.2843 6.4979 6.8910 7.5076 7.6463 15.0831 13.4835 9.8362 7.4671
8.3498 -1.4268 16.2827 -0.1641 0.9978 5.8125 3.5272 6.6463 3.2790 1.0069 5.7639 17.8771 6.4695 2.3247 2.3543 5.5692 11.3020 7.0882 3.3469 4.5131 8.0424 11.1877 5.9433 7.2131 8.5018 3.5134 9.4885 10.1556 7.9147 7.4327
0.4276 2.2691 9.3860 -1.8652 -0.8893 3.0911 3.0815 8.9400 2.9660 0.7104 4.5257 11.3519 6.8831 3.5883 3.2035 7.4243 11.0098 8.2228 5.5794 7.0065 7.4442 10.8833 8.2977 10.1836 12.5167 5.4180 6.7588 11.2641 11.1553 13.3933
-4.6004 2.5714 1.2227 -0.7826 -2.4189 0.3902 3.5724 9.7039 2.5811 0.5554 2.2631 6.6142 7.1408 4.2950 3.2473 6.4423 10.3233 8.6586 7.5836 7.5243 9.5180 11.6839 11.0727 11.9216 14.5366 9.4057 10.4085 15.2263 15.7933 17.5849
-5.9588 0.4288 1.5501 2.7004 -1.8244 1.5532 3.2374 9.2932 1.4335 0.5381 2.6853 9.6962 7.1853 3.1124 2.6720 6.3672 9.2115 7.5306 7.3998 5.7339 9.0873 11.2908 10.9477 10.3276 12.3833 10.5373 14.2589 16.1720 14.6549 13.9323
-3.2396 -3.2841 2.7310 4.4035 -0.6411 4.0756 1.2397 6.6722 1.1903 0.6394 4.8181 7.5269 6.0752 1.5441 2.3030 8.1433 6.7329 5.9840 6.2908 5.0223 5.3757 8.7254 9.0278 8.8088 10.5356 9.9723 13.3482 13.8120 9.9071 8.1209
5.7158 -5.6199 4.6514 1.9396 -0.4053 3.3968 3.3076 2.7237 1.6868 0.6121 3.6961 0.4231 4.2993 1.5559 1.8145 8.3152 5.0914 5.7161 6.2679 5.8645 5.6993 7.4634 8.6631 9.9353 11.5100 9.7214 11.8319 12.9946 8.6152 7.1453
8.4266 -2.8418 9.0370 -0.6346 -0.3284 -0.0623 8.8024 3.6042 1.0827 0.2072 0.1957 1.1349 3.3310 2.3715 0.8941 5.3970 4.2023 5.4522 6.3709 5.6102 9.0930 8.0188 9.4012 11.2471 12.4286 8.2010 11.3728 13.3116 10.3286 8.5952
-2.8569 0.5515 8.6970 1.1705 0.2675 -0.8892 8.3551 7.4793 0.3017 0.0697 -0.4116 5.5598 2.9390 2.2901 0.2726 2.0319 1.5235 3.8017 4.6365 3.8513 6.3688 6.5359 8.2238 9.7268 10.6446 3.1883 7.3836 9.7180 8.7175 7.2271
-9.2060 -1.0691 6.3894 3.4151 0.4519 2.0465 2.4222 5.2184 0.3729 0.7246 1.6927 3.7803 2.5652 2.1851 0.5946 0.8965 -0.2582 3.4793 2.6241 3.0323 -0.5768 3.9590 5.9513 6.8025 7.6235 -2.2585 1.8043 3.8666 3.4756 3.9960
2.2549 -2.5850 15.3232 -0.2638 -0.6527 3.1266 1.5988 -2.8234 -0.7215 1.0151 1.8017 0.8946 2.4898 3.5936 1.4521 2.0625 2.1395 6.3642 3.1322 4.3032 -2.0144 4.4585 5.3701 5.8906 6.8910 -2.3771 1.5405 2.3881 0.9329 3.2166
13.6671 0.6567 27.1409 -7.0361 -2.7236 -0.0002 5.8745 -7.7220 -2.8412 0.0705 -0.7155 1.9306 2.7531 5.0988 1.9344 4.7313 5.2445 8.8281 5.3134 6.2456 2.6365 6.6874 5.7721 7.3806 9.4901 1.9218 5.3893 5.5896 3.4166 5.7307
9.9124 2.6349 14.6838 -8.9082 -4.4859 -3.5883 6.5009 -3.2843 -2.4090 -1.0267 -2.7022 1.9811 3.7163 4.5855 1.4153 7.5621 5.9255 7.2387 6.2833 6.9427 7.8594 7.1085 5.1781 8.5587 12.0371 4.1705 6.7008 7.9847 6.3771 7.9641
-0.1302 -0.0804 -17.8690 -4.3218 -4.3158 -4.4721 3.6412 7.9956 0.5319 -1.1910 -2.5771 0.8229 5.1841 3.0464 0.3501 8.6058 5.9733 3.2868 5.1382 5.7393 10.4720 6.1963 3.7462 7.7030 11.2400 3.6348 5.1410 7.3603 6.4169 7.5307
-7.2809 -1.5480 -28.7639 1.7548 -1.7303 -1.6520 1.6249 13.6772 2.4324 -0.2502 0.4564 3.5128 5.3849 2.9533 0.5353 8.3745 6.1660 1.4296 3.5115 4.4344 9.6380 6.1233 2.9521 6.7917 9.3170 6.8427 7.5228 7.6042 6.3546 7.6696
-10.9180 1.1292 -3.8412 5.3876 1.5708 3.7076 0.3161 7.2111 2.8641 1.3734 5.7942 8.2302 4.5115 4.3409 2.5145 9.4115 6.0362 3.3597 3.3428 5.3339 8.7456 7.5573 3.7121 7.9267 10.1788 14.7727 15.2103 11.3971 9.0822 11.1706
-6.8193 3.9034 21.3521 6.2529 3.4387 7.5008 2.4567 1.5636 3.4121 2.3381 8.8488 10.2834 5.1307 4.7785 4.0943 11.2257 7.2453 5.9683 4.2853 7.3865 11.8256 9.5077 4.7941 9.0950 12.7000 18.5327 18.4230 14.3892 11.4054 13.8182
5.0547 3.5695 23.9499 6.0031 3.7457 8.4133 9.5048 7.4788 3.6846 2.2669 8.3616 10.3351 7.0810 3.1557 4.2696 9.8936 9.9978 6.0687 4.3921 8.0335 15.3692 10.5124 4.5341 8.1034 13.2672 14.3243 12.8717 12.9108 10.6739 11.8707
13.9742 -0.1005 20.9630 6.4871 3.7291 9.8207 12.5474 14.2555 2.9223 2.6834 9.7193 10.7969 7.8435 1.4861 4.6667 4.8694 11.5886 5.0810 3.1964 7.0085 13.5573 9.9669 3.6116 6.3522 10.8958 9.5671 7.4858 9.7390 9.4945 8.3750
15.3209 -3.8135 25.0061 5.9807 3.1529 10.7569 7.0438 9.7825 0.8330 3.6233 12.4809 12.4147 7.0921 1.7192 5.3951 2.4639 11.4227 5.7638 2.2180 5.2436 8.4881 8.3864 3.3190 5.2912 7.4595 8.8978 6.3013 7.0190 8.7094 6.6396
15.0125 -1.9967 25.1086 0.3449 0.8731 6.2379 2.1041 0.3204 -2.8206 3.3249 9.7408 14.0326 6.0005 2.7379 5.1635 6.6192 10.9152 7.2292 2.7249 3.9381 7.1085 7.4418 3.7942 4.8402 6.1045 9.1635 5.1593 5.2619 7.3101 7.1080
13.8378 3.9217 12.0532 -6.6251 -1.1415 -0.7248 3.3879 -0.0617 -5.6522 2.0864 3.5458 13.1504 5.0897 2.2164 4.3276 10.8868 9.5643 6.1120 3.6189 3.8612 10.3249 8.0048 4.3786 4.5698 6.6946 7.8268 5.7283 6.6584 7.0294 8.8650
6.8408 6.7841 -4.4789 -5.3748 0.2149 -2.6407 6.0886 9.4025 -4.4156 1.5562 1.2136 10.9898 4.9318 0.0113 3.1395 8.4255 7.2490 2.0257 2.7609 3.1901 11.9308 8.0845 3.7486 3.3080 5.2186 5.3684 9.6492 9.1313 7.4813 8.6982
-3.1123 5.6808 -6.9055 2.1652 2.5791 -0.4834 6.2186 14.0480 -1.0661 1.5987 1.3061 10.2569 5.5113 -2.1143 1.1994 2.1806 5.9287 -0.7282 0.8622 0.8321 9.5204 6.2989 2.0490 1.3560 2.4634 3.3704 9.7766 7.4023 5.9615 6.1819
-7.0141 2.8297 1.0470 6.2035 2.0021 1.5746 4.4961 8.6685 -0.3153 1.5167 0.3336 6.8253 5.6668 -3.0945 -0.2022 -2.2090 5.3829 -0.0235 0.1073 -0.6793 6.6592 4.1153 0.9723 0.7337 2.7012 2.5067 2.9473 2.5998 3.5053 5.5844
-4.1541 -1.9104 -1.6374 7.0283 0.9936 4.4043 3.2772 6.2034 -2.2366 1.5667 0.4833 -2.4740 5.1782 -2.6697 -0.0453 -2.4250 3.8266 0.7266 -0.1107 -0.4429 3.8374 2.5319 0.3001 0.8037 3.3122 1.0837 -3.1163 -0.3497 2.0141 6.1351
-1.6307 -3.8250 -7.9301 7.7880 2.3807 7.0874 3.8442 8.7863 -3.7348 1.8089 2.2955 -9.1572 4.6503 -0.7195 0.8256 3.0655 2.4324 0.5419 -0.4539 0.2110 0.8712 2.0489 -0.2717 0.4153 1.1608 -0.7558 -2.3279 0.0182 1.4995 3.5430
0.3675 1.4245 8.2427 3.7581 2.7377 6.4127 4.9354 3.9144 -3.8844 2.1170 3.7858 -4.6719 3.8995 1.4775 2.2479 11.1654 3.1368 2.7020 1.1408 2.6867 2.4680 3.9177 1.3872 2.0250 1.5641 0.4743 2.6123 2.9810 3.0509 1.2471
7.1787 6.5310 33.9675 -4.0965 0.6375 4.8710 5.8948 -4.4720 -3.4622 2.7907 5.5449 5.8103 3.3925 2.4507 4.4248 13.7899 5.5542 6.6068 4.8145 7.5886 8.7658 7.3699 5.4628 6.5692 7.3932 5.6867 7.7027 7.2737 6.8745 4.3214
13.4431 4.6767 34.7849 -6.5751 -0.2375 5.3134 6.3576 -2.7227 -3.3785 3.5437 7.8415 11.8462 4.3390 2.9462 6.1508 10.4405 8.5212 8.5843 7.5059 11.1450 12.3859 10.1364 9.0180 10.7072 12.8045 11.5355 12.6442 10.9037 10.6593 9.6775
10.0313 0.9093 16.5473 -3.4676 0.3679 4.5405 3.9854 3.4965 -4.3512 3.4406 8.6582 12.9579 5.8401 3.8605 6.4255 8.6004 10.3509 8.4989 7.9186 11.2252 11.3503 11.3809 10.4982 12.4308 14.3623 13.7768 16.0469 12.7456 13.5978 13.3003
4.7868 -0.2386 6.4558 -1.8593 -0.1000 1.6429 0.8693 3.8294 -4.8358 2.4974 7.3856 15.4291 5.9501 4.6532 5.6831 9.7421 9.6701 7.8153 7.2888 9.8852 10.5936 10.6845 10.1785 12.1975 14.3888 10.3123 14.4884 12.6355 16.0669 14.8372
6.7938 -1.3270 2.0981 -1.2063 -0.4049 1.1457 1.8505 4.8798 -2.4877 1.8913 6.5088 16.3410 5.0131 5.1237 5.1266 10.6202 7.6266 6.1329 6.4766 8.9268 10.3698 8.0526 8.3659 10.2896 13.2649 4.0563 9.4699 10.6986 16.1046 12.6585
4.3131 -2.5983 -6.8347 2.9235 1.0819 3.9423 3.3928 10.7631 0.7610 2.3572 8.4063 7.5251 4.2991 5.1481 5.5034 11.9356 5.4216 3.7055 5.7087 8.3909 7.2721 5.5957 6.1485 7.9024 9.6386 0.7973 6.9601 8.0844 12.1622 6.9298
-7.1065 -0.7407 -5.3439 7.0176 1.9600 5.1636 1.8584 10.4764 1.0613 3.0149 9.7912 -2.2833 3.9228 4.3978 5.6022 12.3606 3.5583 3.0978 5.4625 7.6901 4.4398 5.4090 5.1907 6.8324 6.3246 3.3690 8.2482 6.3185 7.2366 3.7304
-8.6578 4.0761 13.6390 4.4315 0.2546 1.6517 3.4138 1.7781 -0.8598 2.4397 5.3331 3.8668 4.4388 3.7244 4.1102 7.5101 4.6639 5.5948 6.0912 6.4445 7.0953 7.2196 5.7997 7.1536 7.5875 9.6795 9.4553 6.2552 5.8859 7.5842
2.4101 7.5703 25.7118 -2.0545 -1.7394 -3.1611 8.7600 -1.4636 -2.1715 1.0316 -1.1156 18.8396 6.5421 3.3784 2.4614 0.6402 9.0578 8.1433 6.8122 5.0604 11.7291 9.4435 6.4967 7.5828 11.1307 13.8141 9.6499 7.9095 8.1074 14.0020
6.6848 6.5451 16.0286 -3.9083 -1.2963 -3.4474 9.1560 5.1304 -3.0658 0.5367 -1.7599 20.7056 8.6262 2.0226 1.9566 -1.2665 11.5053 7.3479 6.1226 3.8358 12.0559 10.4659 5.8563 6.7770 10.9375 11.8305 10.6430 9.5373 9.8864 14.9537
2.5986 2.9196 1.6960 -0.7776 0.3924 0.6806 5.1207 10.4788 -4.3853 1.0096 1.3632 8.7851 8.5790 0.1874 1.5909 1.8019 9.2407 4.7064 4.3262 3.0843 9.3778 9.3288 4.3530 4.9791 8.2349 8.5834 11.1714 9.5123 10.0660 10.9170
4.8769 0.5724 -0.3617 1.3694 1.0683 4.0965 4.8838 9.3432 -5.5342 1.0066 2.8983 0.3485 6.9631 -0.1477 1.4954 6.2219 6.0967 3.4143 3.2022 3.7203 7.9823 6.9139 3.0622 4.0642 8.5086 9.9136 9.1472 8.6642 10.2898 8.7013
14.4457 -0.5694 8.3286 2.0384 1.5727 4.8355 8.3061 6.4745 -6.2752 0.4226 4.0349 2.3518 5.6029 0.1740 2.5868 8.5954 5.9373 3.2204 2.5600 5.0381 8.0321 5.4432 1.7178 4.0190 9.7456 11.3448 6.4016 7.4789 9.0886 7.7622
19.8265 -1.4828 20.0720 3.6557 2.6153 3.9929 10.2917 3.7472 -6.0125 0.1573 5.1279 8.3420 5.0243 -0.7268 3.2685 6.0833 7.8402 2.7034 1.5104 5.1268 8.2064 5.6904 0.6380 3.5543 7.9892 8.3376 6.9772 6.6120 6.3865 5.1091
14.3657 0.0963 26.2756 4.4153 1.9993 1.3633 9.7722 0.6496 -3.8286 0.0561 3.3916 13.7326 4.9818 -1.6088 2.4344 1.8392 8.7094 2.3353 1.5432 4.5263 8.9765 6.2195 1.3649 3.9430 7.3771 7.3854 11.5680 8.9591 7.8675 7.0896
2.7000 3.7907 19.5026 3.6012 -0.0413 -1.4483 7.0634 0.1388 -1.6351 -0.2025 1.3507 17.4710 5.1414 -0.9708 2.1552 2.7362 7.7707 2.2520 3.2783 4.8127 10.3785 5.7954 2.8015 5.6641 10.4313 11.6039 14.0469 12.2617 13.3556 15.4919
-4.7751 5.0024 3.7138 4.1917 0.3692 0.4267 2.7999 3.7537 -2.3376 0.1787 3.5310 15.1108 4.4452 -0.5889 3.3720 8.6285 5.9329 0.8805 3.9877 4.9755 10.2464 4.1749 1.6217 5.0917 10.6626 11.9616 8.4682 8.8336 12.9998 17.7012
-3.5390 3.2981 -4.6179 5.2120 3.1880 7.2999 0.3504 6.9080 -4.9009 1.5097 7.3140 6.4488 2.1630 -1.7129 4.0646 12.2845 3.2076 -1.9058 2.3402 3.1972 7.2000 1.1831 -1.9327 0.8028 5.3053 5.9911 0.5538 0.4297 4.1762 8.2252
2.9496 2.4311 5.7144 2.3888 3.8831 11.9345 1.3997 3.2188 -6.3744 2.6328 7.4505 1.9240 -0.5161 -2.0466 3.5860 8.8623 1.0460 -3.0778 1.0564 0.6298 4.7125 -1.6853 -3.5032 -2.3388 1.4695 4.6847 1.2195 -1.7116 -2.4275 -0.3595
9.3039 2.3707 18.5146 -2.6456 1.3237 8.7967 2.7319 -4.8375 -6.6115 2.6457 4.2735 6.1324 -1.5915 -0.1795 3.5239 0.9512 2.2548 -0.9942 2.2029 0.4846 7.5649 -1.2325 -0.9300 -0.4088 3.6293 11.1962 8.1225 4.1666 0.1046 1.5119
10.0134 1.1031 5.8872 -3.6067 -1.1722 1.0770 3.0647 -4.4409 -6.7193 1.8090 0.7787 8.1592 -0.5763 1.5254 3.6750 -4.4337 5.0415 0.8291 3.5439 2.6469 11.4429 1.5919 2.1365 2.9103 6.5424 13.7336 8.2102 7.2388 4.6045 6.7021
4.3750 0.3456 -20.0503 0.1894 -1.5262 -3.9408 4.8106 5.6397 -6.2840 0.8405 -1.6434 0.9493 0.5370 1.2755 2.5585 -3.3382 4.4435 -0.5849 2.3944 2.9270 6.6610 1.2423 1.3698 2.2182 4.6265 7.0768 -0.8323 2.0788 2.7912 5.8365
1.6111 0.2818 -15.8299 2.4974 -0.7057 -2.7506 4.5785 6.3133 -5.2348 0.7385 -0.0686 -5.2302 -0.5668 0.5800 1.9950 0.4078 0.8478 -1.7467 0.7411 0.7067 -2.7551 -2.3399 -1.1246 -0.3344 0.7267 1.5420 -6.7244 -3.4685 -1.4319 1.8970
8.4749 -2.7869 19.3245 -0.5370 -0.3579 2.2103 -3.0321 -8.5314 -4.6704 2.1108 7.6205 -0.0869 -2.4850 0.7004 4.8860 0.1680 -0.2022 1.2704 2.0650 0.6884 -2.6028 -2.1653 0.0603 0.9708 0.6697 3.9619 -2.0477 -1.6533 -0.3354 2.1307
15.1740 -6.0497 38.5481 -5.3020 -0.7363 5.8511 -9.9004 -16.8507 -4.0888 3.7121 13.8245 9.9619 -1.2616 0.9435 8.6714 -2.7912 3.4585 5.6150 4.9567 3.8027 6.5425 3.5942 4.6339 5.2806 3.9121 8.2249 6.6593 4.5568 4.5079 5.5858
8.6850 -2.5419 19.4608 -5.5085 -0.6052 5.0731 -4.2844 -5.4432 -1.9979 3.4450 9.0569 14.1005 3.0858 1.3439 8.2978 -0.1177 7.4937 6.2528 5.5634 5.5465 12.0934 8.5214 7.6468 7.5449 5.8531 9.0759 11.8240 8.8941 7.3686 7.5184
-4.5006 4.0057 -8.3613 0.3731 0.5817 0.9591 7.6532 8.9305 0.3385 1.3084 -1.1896 12.5957 6.0399 2.4940 4.4614 8.3319 7.5542 3.7408 3.8354 4.6285 11.6798 8.6676 7.3712 7.0482 5.8118 8.6398 12.4969 9.7900 7.8432 7.7434
-6.7817 5.3608 -9.0192 6.1907 1.3316 -2.9317 12.8046 9.1400 0.7986 -0.5638 -5.0655 9.3045 5.6768 3.3619 1.5296 11.8034 5.5095 2.8665 2.1996 3.7781 10.0824 6.9559 5.8319 6.1864 6.3380 8.4541 9.3883 8.1554 7.7070 8.2525
1.6773 2.8861 9.2754 5.2430 0.6255 -3.6510 10.2003 2.7380 0.9235 -0.8550 -2.7978 4.6790 4.8454 2.9764 0.3241 5.7125 5.1820 4.7236 1.3014 3.1295 7.4012 6.4886 4.4408 5.2083 7.4345 6.9634 5.6968 6.1308 6.9109 8.7932
4.4978 1.1340 12.1982 0.4552 -0.0418 -1.4496 4.4407 3.4972 2.7068 -0.4838 -0.8740 2.0782 5.3942 2.0814 -0.8947 -2.3264 5.4076 5.2136 0.4051 0.9471 4.6816 6.2087 3.0820 3.1538 6.7059 4.3206 6.1873 5.8715 5.6653 7.9451
-0.4199 0.7504 0.7585 -0.5410 0.6223 -0.2989 -0.5468 6.8286 3.8534 -1.1172 -1.0952 4.4196 5.4954 1.1732 -2.4422 -4.9784 3.8098 2.9211 -0.9453 -1.6132 4.9783 4.5373 1.1635 0.3513 3.5515 3.1278 7.3788 4.9685 4.1472 5.3732
1.3556 1.6397 1.1400 1.8567 1.6010 -2.3072 0.5995 3.1175 2.2964 -2.8342 -3.3811 7.1715 3.7870 -0.0827 -3.7973 -2.5905 2.5044 1.1452 -2.6391 -2.4012 5.5314 2.6203 -1.4404 -2.1574 -0.0054 3.4548 2.7225 0.5966 1.5346 2.1424
11.9344 2.1992 9.4633 2.1425 1.9552 -3.2373 7.1239 -2.3547 0.5931 -3.7264 -6.5532 6.5340 1.5771 -1.3600 -4.4204 0.8447 3.2685 0.6603 -3.4127 -1.6784 2.9474 1.4292 -3.1349 -3.0387 -1.4007 2.5669 -2.0267 -2.4460 -0.2792 0.1979
18.2425 0.6163 10.5897 -0.1374 2.0366 -0.0160 10.5160 -3.1429 1.0137 -2.5628 -6.6687 4.6931 0.0909 -2.0651 -3.2507 2.5028 3.6103 -0.4181 -1.8945 -0.3058 0.6478 0.1644 -1.9750 -1.2162 0.5856 0.7603 1.7538 1.1704 2.9803 1.2786
16.3919 -0.5126 12.8153 -2.7157 1.8226 3.4726 7.0273 -3.8484 2.1773 -0.5763 -2.4368 3.9830 -0.8580 -1.9929 -0.1038 2.1542 2.6748 -0.7926 0.8779 1.6155 2.2809 -0.3906 0.9292 1.8562 4.2601 -0.1256 7.0470 6.2948 9.3168 4.6016
11.8537 1.6783 16.9751 -5.1327 1.1915 4.0939 1.7448 -5.4970 2.6341 0.5373 1.5425 5.2824 -1.6165 -1.0464 2.8994 1.4886 2.4194 0.5954 2.3318 2.8665 4.8271 0.6284 2.2574 2.7110 5.4584 -1.2769 3.4705 4.8709 9.8386 5.6470
2.5111 5.1773 7.1783 -4.8297 1.0727 3.3703 -0.4181 -2.2244 2.3248 0.5783 1.2686 6.2964 -2.4029 -0.1307 3.2786 1.4443 1.1642 0.1150 1.4482 1.5615 2.4756 -0.0431 0.6755 0.0654 1.6513 -2.4166 -4.0292 -1.5705 1.6911 0.6844
-10.7845 6.0989 -7.5906 0.5186 1.9495 2.4275 -0.8120 2.2655 0.9851 0.4195 -0.0720 1.2081 -3.3819 -0.4575 1.8065 1.1384 -3.3094 -3.0449 -0.3823 -1.1712 -3.7352 -3.5441 -1.5910 -3.0256 -3.6416 0.6087 -5.2537 -4.8738 -5.9605 -5.4731
-12.0324 2.9888 -3.7885 5.0821 2.7962 1.9406 -2.5834 -1.7058 -1.1569 0.9260 2.5172 -7.2916 -4.1835 -1.0762 1.7907 0.8630 -6.8624 -3.6166 -0.7384 -1.3942 -5.0301 -4.3605 -1.2536 -2.4616 -3.6958 8.6501 1.1030 -0.2379 -3.4227 -3.2528
3.3793 -1.5784 7.1409 2.9814 3.0854 2.7663 -3.3558 -8.4999 -2.5074 1.7766 5.8002 -7.7905 -3.8858 -0.6535 3.3720 1.2727 -5.4705 -1.0228 0.8505 1.0697 0.5498 -1.2406 1.2683 0.8284 1.1108 15.0705 8.9618 7.8691 5.7483 5.5192
14.7522 -2.8313 0.3367 -0.7751 3.4737 2.9296 0.9656 -4.6772 -2.2448 1.8042 3.3555 -1.1346 -2.0445 -0.0840 3.2604 0.5482 -2.0388 -0.8291 1.9681 1.5912 4.3389 -0.3158 2.1115 1.7893 2.9602 13.1964 11.4223 10.2120 9.4034 8.6756
9.8318 -0.3492 -10.4916 -0.7416 3.4904 1.3383 5.1903 3.5356 -1.8421 1.1834 -0.8793 -0.2261 -0.4577 -0.1006 1.7894 -1.3200 -0.9003 -2.9586 1.5160 -0.4448 2.8596 -2.5064 0.8476 0.0763 0.4687 6.2570 8.9970 6.5147 5.4533 5.0114
0.8282 0.0521 -1.6635 0.5325 2.0486 1.1655 0.7696 0.0547 -2.0601 1.1168 1.5734 -5.2293 -1.7069 -0.1897 2.4685 -1.8816 -2.7913 -2.8594 1.3493 -0.4844 0.4185 -3.2513 0.7505 0.3101 0.3971 2.9640 8.4198 5.2150 3.2469 4.7206
0.2803 -3.4196 11.7070 0.9291 0.5687 2.7894 -5.5531 -9.2773 -1.0490 1.3978 6.4588 -4.1749 -4.1126 -0.3874 4.2382 -1.2161 -5.1802 -1.2505 2.1027 2.0198 -0.5876 -2.0419 2.3160 2.9425 4.1301 4.6585 10.8299 8.3439 6.3374 9.3992
7.7485 -3.9487 8.1740 0.4381 1.2719 2.3450 -0.6682 -7.9674 1.3359 1.0425 3.8099 2.6885 -3.3381 -0.4662 3.4246 0.8034 -4.1948 -0.6794 2.3725 3.2810 0.8761 -0.3127 3.5255 4.1427 6.4990 5.8185 12.2091 10.5620 9.2528 11.5390
13.5156 0.3502 0.8568 -1.0424 3.0944 0.8385 7.8637 -1.0144 2.2151 0.4681 -2.0646 3.1077 -0.5956 -0.1443 1.1294 4.0947 -0.5235 -0.3372 1.7515 2.3311 3.5666 1.4707 3.1315 2.7098 5.3711 3.5560 10.6931 8.6825 8.0732 8.0725
7.5772 1.9565 4.6413 -0.2273 3.4518 2.4732 4.7426 -2.3505 1.0652 0.5915 -1.4514 -5.4053 -0.9105 -0.6966 0.2999 3.3528 -0.1421 -0.3325 0.7838 0.8881 2.3644 1.1940 0.7262 0.3841 2.7143 -0.1078 5.5633 3.2114 3.7980 2.5309
-4.5473 0.0413 7.2191 3.2703 2.2925 4.6444 -2.4004 -6.8278 -0.0828 0.7697 0.9098 -12.4383 -3.5780 -2.2862 -0.0627 -2.0947 -3.8835 -1.7743 -0.2838 -0.1421 -2.0214 -1.2415 -1.8209 -1.1754 0.8835 -1.9556 -0.8955 -1.9068 0.7096 0.2656
-7.8390 1.3987 1.8149 3.5669 1.3426 2.7347 -0.3840 -4.7514 -0.8823 -0.1996 -2.3954 -9.9979 -4.1713 -2.8607 -1.6499 -3.5933 -5.4745 -2.8385 -0.9874 -0.3978 -3.3520 -2.1739 -1.7136 -1.2386 1.0764 -1.7560 -2.8598 -2.0217 2.5093 3.0689
-1.7725 3.6919 2.9053 1.5164 1.3159 -0.5626 3.5875 -2.4327 -1.5086 -1.7326 -5.2926 -1.2313 -2.6801 -1.9928 -3.0184 -0.4053 -3.2980 -1.6915 -0.6948 0.0777 -1.7210 -0.7779 0.0110 -0.4710 2.2170 -1.7681 -0.1546 1.0070 6.4488 6.0443
3.3117 -0.0386 10.7011 3.3866 1.3247 -1.7380 1.4151 -5.4191 -1.4100 -2.3183 -2.9689 4.0918 -1.1938 -0.9829 -2.8232 -1.4758 -1.6688 0.4046 0.3716 0.2105 -0.5110 0.5086 0.8784 -0.0623 2.2546 -1.7411 1.8690 1.9452 7.0798 4.7732
2.9897 -6.0012 5.2452 5.8905 0.2942 -2.0924 -2.1802 -5.8424 -0.7348 -1.9108 -1.3462 2.3922 0.3592 -0.2825 -2.2571 -6.7448 -1.1081 1.4466 0.8863 -0.5981 0.6339 1.0272 1.1924 -0.1555 0.6501 -0.8377 1.6064 0.4630 4.3225 1.7061
-1.9725 -7.4295 -12.3168 3.4751 -0.8630 -0.9774 -5.5967 -0.2593 0.7820 -1.2133 -1.4869 0.5109 1.1769 -0.4215 -2.0858 -8.6153 -0.2193 0.3802 -0.2402 -1.3983 0.6562 0.5321 1.0413 -0.6785 -1.9412 -2.1818 0.2652 -1.3812 0.8190 -0.8654
-5.2393 -6.0145 -15.7237 0.2985 -0.3790 2.9421 -8.3030 2.2536 2.7839 -0.1830 0.7764 1.9120 -0.2076 -1.6340 -1.3085 -6.3036 -1.0467 -1.9580 -1.9978 -1.3207 -1.9441 -1.7981 -0.1656 -1.6836 -4.2402 -6.2417 -1.1203 -2.3019 -2.0182 -4.1653
1.1098 -4.5820 0.8525 -0.7007 0.2068 4.4283 -3.9920 -3.5093 2.6450 0.7922 1.1647 1.8691 -1.7138 -2.0321 -0.0752 -3.2202 -2.5146 -2.3269 -2.1250 -0.7881 -2.4903 -3.3856 -0.3229 -1.8240 -4.4090 -6.8138 0.4064 -0.0097 -1.8739 -5.5256
8.5719 -1.9369 12.2635 -3.0878 -1.6477 0.2375 2.9990 -9.9452 0.0628 0.8777 -3.2889 -0.2512 -0.9349 -0.7274 0.3803 -0.0469 -0.5915 0.0285 -0.4183 -0.4146 2.0403 -1.4764 1.4521 -0.2124 -2.3641 -2.3324 4.3821 4.2257 1.4166 -1.6346
2.1984 1.0398 4.1444 -5.3503 -3.4144 -2.3344 0.0700 -8.6203 -2.1871 0.8746 -3.5225 -1.4666 -0.0789 -0.1893 0.9677 2.8203 1.6302 0.5468 0.8695 -0.2106 5.2481 0.2495 1.5171 0.7231 -0.7810 -0.1729 4.2737 4.2915 2.8351 1.9776
-9.9317 1.6658 -7.1509 -2.7608 -1.6258 1.7075 -8.7798 -3.3604 -3.5422 1.8091 3.7078 -3.5048 -1.9506 -1.9682 2.7594 4.1902 -0.8173 -2.9242 0.2279 -0.0313 2.5158 -1.9314 -1.3726 -1.0729 -1.2712 -3.1175 -0.4919 0.1704 0.4037 0.0369
-9.0436 1.5686 -3.5324 1.9811 1.4988 5.9014 -7.8836 -3.2909 -4.4528 2.2766 6.9963 -6.7460 -5.4082 -4.2210 3.3804 4.3109 -4.6533 -6.1907 -1.7701 0.4327 -0.7429 -4.3979 -3.4785 -3.3213 -1.8774 -4.9121 -2.6274 -1.3532 -1.1752 -1.7557
3.4544 3.5404 9.4499 4.1333 3.1541 4.9356 4.3864 -6.6448 -4.3176 1.0786 1.3016 -5.9437 -7.7216 -5.1527 1.0790 3.8199 -5.3567 -6.7900 -3.8610 1.4183 -0.0338 -4.0352 -3.3758 -3.5626 -0.7579 -3.0544 -0.9082 0.3417 -0.3993 0.3902
13.5302 4.3353 15.6367 5.0586 4.2026 2.1259 13.8609 -5.9550 -4.6443 -0.1407 -3.3631 0.1725 -7.3669 -4.9748 -1.1410 1.6307 -3.5761 -6.5078 -4.8728 2.3967 0.8789 -3.4770 -3.0083 -2.6335 1.0413 -1.2591 0.0233 0.6316 -0.5257 1.1303
14.5739 0.3766 10.2835 6.3450 4.2015 0.6885 10.2308 -3.3541 -6.3814 -0.1977 -0.6974 4.4781 -5.2715 -4.4438 -0.7161 -2.0277 -1.5353 -5.9014 -4.5273 2.6232 -0.7710 -4.0672 -2.6705 -1.6314 2.2539 0.5987 0.0861 0.4127 -0.2475 1.0915
7.1301 -2.6685 -1.1920 5.0670 2.2205 0.3281 -0.9383 -3.2553 -6.5574 -0.4371 2.8567 2.3578 -4.9519 -4.2240 -0.2204 -2.8517 -2.4242 -5.7503 -4.6690 1.3483 -1.4760 -4.8407 -2.5037 -1.6747 1.6742 4.0308 0.5304 1.7768 2.2094 4.2266
-1.7417 0.8721 -11.4461 1.0014 1.5023 0.7316 -6.9303 -2.3536 -4.5528 -1.6521 0.9858 -0.7586 -7.5988 -4.6852 -2.7803 -0.7255 -7.3799 -8.1128 -7.1568 -2.5623 -0.0921 -6.7788 -4.3373 -5.3156 -3.2645 4.7989 -1.0680 0.8041 0.8905 2.7734
-1.6596 5.0599 -11.2352 -0.6165 3.4711 0.0126 -3.7974 -0.6240 -3.3884 -2.8717 -4.5425 -0.8528 -9.0822 -5.2052 -7.0146 -3.5622 -10.6408 -10.2738 -10.0870 -8.0622 -0.4240 -9.0244 -7.0258 -11.0427 -10.5433 1.1350 -4.2785 -3.4559 -6.0444 -6.5607
3.5635 4.6871 1.7304 0.9514 3.5734 -4.2298 1.4737 -3.7352 -2.6279 -3.3675 -9.3147 -3.3576 -6.8185 -5.2099 -9.2999 -11.8670 -7.9402 -7.8673 -9.8004 -10.5346 -1.7603 -7.6333 -6.4796 -11.9121 -11.9245 -1.1044 -4.0379 -4.2398 -8.6632 -9.7878
0.8068 4.9682 14.5481 0.1568 0.4960 -8.9349 2.3648 -8.9434 -0.1964 -3.2046 -10.7634 -8.9849 -4.0114 -5.2724 -8.5579 -14.3549 -4.2848 -3.8907 -6.8360 -7.9930 0.1023 -3.5169 -2.9679 -6.6034 -6.1094 0.2821 0.3313 0.2653 -2.8305 -1.8961
-5.5140 7.2052 15.3340 -2.4711 -0.8117 -9.2062 0.6522 -8.8216 2.4243 -2.8845 -9.3051 -8.9977 -3.1824 -5.7955 -7.0365 -8.1273 -4.1361 -3.5770 -5.3372 -5.2056 2.0735 -2.2623 -1.3601 -2.9761 -2.5985 -0.0892 3.2670 3.1419 1.9149 2.9811
-4.0667 4.8431 6.5634 -0.8153 0.5700 -6.7982 -0.0118 -5.4148 3.4781 -3.0393 -7.8810 -3.8801 -2.9337 -6.2292 -6.7936 -3.2459 -4.6448 -5.4961 -6.3259 -5.9863 -1.2715 -4.2509 -3.0566 -5.0332 -5.6322 -4.9702 2.1287 1.4610 -0.2249 -1.7725
-2.3261 -1.5856 -4.7610 3.2817 0.3422 -5.8112 -1.9535 -4.0635 3.0783 -3.1473 -7.2858 -3.9972 -2.4331 -5.9364 -7.1253 -4.5713 -4.2425 -6.0774 -6.9501 -7.6025 -6.1491 -5.1872 -4.7460 -7.6533 -9.2213 -10.7068 -0.4297 -1.1575 -4.2701 -7.7532
-6.6738 -5.5508 -12.5366 3.5123 -1.2847 -5.1742 -6.9589 -4.2490 1.8704 -2.1497 -5.5329 -8.7254 -2.2297 -4.6751 -6.7399 -8.4595 -5.0093 -5.2765 -6.3389 -7.8445 -6.5385 -4.7009 -5.1239 -7.6426 -10.4123 -12.5972 -3.5405 -3.6788 -6.5354 -9.6698
-6.5445 -6.2410 -12.6485 1.1579 -0.8185 -3.7332 -10.3025 -4.6298 1.0905 -0.9393 -3.5491 -8.7722 -1.7925 -3.0768 -6.0945 -11.8721 -5.4045 -3.9531 -6.0833 -8.5665 -4.8128 -4.8150 -5.5789 -7.3533 -11.2730 -9.3177 -7.4733 -6.4534 -7.6472 -8.6919
-0.3595 -5.0419 -8.4740 -0.3481 0.4653 -3.8205 -8.5939 -5.3285 0.3526 -0.9319 -3.8967 -5.1478 -0.9447 -2.4835 -5.6918 -11.1347 -3.2637 -2.6411 -5.9814 -9.3006 -5.2393 -4.7169 -5.6516 -7.0358 -10.6573 -4.2182 -8.1056 -6.1644 -6.5637 -5.4024
2.4389 -2.1643 -3.3836 -2.1974 -0.0454 -4.5739 -4.6860 -6.6117 -1.5830 -0.9791 -4.9894 -5.6953 -0.9696 -3.0330 -5.0028 -4.8076 -1.9385 -2.1983 -4.9970 -7.6270 -5.2661 -3.4445 -4.3206 -5.1589 -7.5896 -1.0226 -3.0040 -2.1646 -3.4025 -2.1022
3.3019 -1.9021 1.2283 -3.4522 -0.7144 -2.9743 -2.3854 -8.1280 -2.3503 0.0803 -4.4471 -9.8155 -1.6643 -3.2897 -4.4175 -1.4786 -3.2425 -2.1544 -4.0589 -5.4936 -1.5946 -1.9391 -2.7409 -3.2998 -5.7652 0.3084 1.8987 0.1247 -1.9557 -2.7889
4.9416 -6.3031 -1.8200 -1.2837 -0.0307 -1.2924 -2.6657 -6.2859 -0.5047 0.4276 -3.8518 -9.9219 -1.2976 -2.8169 -4.9678 -7.1833 -3.3812 -1.8126 -4.1469 -5.6654 1.2246 -1.3440 -2.0020 -2.9431 -6.6655 -0.8358 -0.2344 -2.4145 -3.3079 -6.4388
1.7734 -8.2833 -9.6277 1.0305 0.1373 -3.0440 -4.3393 -1.5250 0.5576 -0.8498 -4.1729 -3.4420 -0.3585 -2.4573 -5.4331 -12.7545 -1.2792 -1.6031 -3.9984 -5.2787 -1.2812 -2.0576 -1.1345 -1.9441 -6.2500 -4.7623 -6.5440 -5.2405 -3.2348 -7.1349
-6.1408 -3.4764 -6.9750 0.2701 -1.4790 -6.2862 -4.7491 -1.5560 0.5180 -1.3572 -3.7769 2.6994 -0.4119 -1.7720 -3.6099 -9.8672 0.1054 -0.9405 -1.9428 -1.3218 -2.9877 -2.2006 1.3323 1.4023 -2.2202 -4.9908 -6.4979 -1.8898 1.3550 -2.1713
-13.5691 1.8705 1.5900 1.4746 -2.7791 -6.4580 -2.0825 -5.2145 2.0974 -0.0895 -2.6482 0.0455 -0.9425 -0.5915 -0.5263 -3.3484 -0.5640 -0.1907 0.4107 2.4497 0.3729 -0.6101 3.6106 3.7740 1.0012 0.0343 1.0504 4.5328 5.5917 2.2193
-17.4557 1.1546 -1.7164 7.1395 -1.2797 -1.5744 -0.5265 -3.3256 2.3858 1.1744 -0.0382 -8.8643 -1.5385 -1.2933 1.1607 1.3396 -3.1519 -2.2692 -0.5523 1.9214 0.0367 -1.1440 1.4077 0.9895 -1.4040 -1.1041 2.6072 2.7057 1.7906 -1.7163
-13.8741 -4.2409 -11.3347 9.5854 1.3524 4.5243 -5.5868 0.6944 -1.4705 1.8048 5.3070 -11.7454 -2.6943 -4.0661 1.3362 2.9274 -5.3685 -5.9459 -4.1394 -0.4380 -7.6806 -5.2926 -4.0317 -4.1669 -6.4169 -10.1146 -5.9775 -7.3783 -6.9473 -9.9341
-4.0232 -8.3244 -9.3111 4.9775 1.3595 5.5395 -11.2970 -2.3473 -5.0572 2.0765 7.6256 -5.1431 -3.5270 -5.4100 0.6655 -1.8212 -4.0169 -6.3336 -6.2468 -1.9986 -12.4634 -7.7976 -6.5237 -6.0270 -8.6225 -12.8741 -11.3045 -12.5688 -10.3828 -12.5667
2.4807 -7.8799 1.5918 0.7305 -0.7648 1.7938 -7.9110 -7.0590 -5.4760 1.2224 2.1589 0.2041 -3.4120 -5.1299 -1.2670 -10.6866 -2.1063 -4.8246 -6.7401 -4.4834 -10.2528 -7.0728 -5.7673 -5.7495 -9.3584 -7.4924 -8.6933 -9.6899 -8.1345 -10.4191
2.9811 -4.9142 4.8730 1.2778 -1.8319 -1.9910 0.4891 -3.8650 -5.1216 -0.3934 -3.8875 0.0740 -2.6847 -5.7405 -3.2998 -13.0048 -3.1246 -5.4723 -7.6010 -7.1128 -7.4797 -6.4465 -5.5360 -6.7028 -10.7995 -4.9282 -6.6503 -7.1659 -6.7261 -9.5513
5.3669 -1.6059 -0.6043 1.1823 -1.8986 -5.1167 4.8651 1.9319 -4.0623 -0.9187 -4.6474 2.3813 -0.6067 -5.6526 -3.2586 -6.0979 -1.6050 -5.1309 -7.0474 -5.9359 -4.5285 -4.7554 -4.4029 -6.4774 -9.7389 -3.6875 -5.2296 -6.0055 -5.9782 -8.2343
10.0253 2.1020 -2.5562 -2.7257 -2.6419 -7.7336 5.2654 0.9062 -1.1641 -0.4052 -4.5987 4.5798 2.0704 -3.0977 -1.7175 1.1111 4.3120 -0.9651 -4.0464 -1.9847 1.9977 -0.4969 -0.6953 -3.2841 -5.6821 3.1543 -0.3900 -2.5601 -3.4327 -3.8218
8.3527 4.1923 -0.5299 -5.4652 -3.3880 -7.8661 3.4286 -3.2525 0.9980 -0.6259 -5.3660 -4.4230 1.9757 -1.4820 -1.0273 3.3850 4.8945 1.4714 -2.3394 -0.3213 6.6513 1.4250 1.3745 -1.0456 -3.4128 8.5795 2.0525 0.1313 -1.5476 -0.2666
1.5784 1.8916 0.0059 -3.4850 -2.9231 -6.0324 -0.8497 -4.4196 0.8619 -1.5168 -3.4441 -15.6530 -1.3026 -3.0786 -1.5893 1.8049 -2.4897 -1.3968 -3.6763 -1.9003 2.2833 -1.9004 -0.6457 -1.9476 -3.7712 4.2171 -1.0300 -0.2816 -1.2034 -0.1460
-2.0748 -1.7051 4.2834 0.5753 -1.9041 -4.3352 -3.2802 -5.8689 0.8247 -1.4621 -0.8729 -11.2660 -4.0990 -5.1852 -2.0139 -2.5200 -7.5248 -4.8919 -4.6877 -3.3995 -6.1515 -5.8938 -3.2482 -3.2982 -3.7661 -3.3589 -3.0473 -0.8199 0.0866 -0.9206
-3.9268 -1.6251 9.7826 4.0479 -1.2667 -2.7995 -0.5594 -7.5760 1.7634 -0.4392 -1.2281 0.1351 -4.2499 -5.9456 -1.7273 -5.8895 -6.1911 -5.9324 -3.5993 -3.1121 -8.0454 -6.7864 -4.0728 -3.6837 -4.1862 -4.6254 -2.3201 -1.2564 0.8408 -1.7101
-5.8040 0.5648 5.0640 5.7354 -0.5752 -1.1813 2.6840 -3.8875 1.1976 0.2841 -1.9466 1.4213 -2.7625 -6.0641 -1.3875 -4.5073 -3.4925 -6.2175 -2.6313 -2.5668 -4.2733 -6.3482 -4.4758 -4.4684 -6.8655 -2.2888 -3.9539 -4.1779 -2.4387 -4.0986
-1.8069 1.4973 -1.2102 3.5632 0.3656 -0.5557 2.5497 0.4560 -1.7759 0.6011 -1.3515 0.5705 -1.4870 -5.4829 -1.4623 -2.4200 -0.7043 -5.6878 -2.9626 -3.0492 -4.8593 -6.8341 -4.9869 -5.6630 -9.3265 -3.2613 -8.4418 -8.5493 -7.2847 -6.6246
4.9789 1.6771 3.4290 -0.9307 0.2455 -1.1463 1.5693 -3.0002 -4.6397 1.3772 -1.7111 4.8822 -2.3182 -4.6468 -1.3977 -4.6555 0.8116 -4.3993 -3.1996 -3.3695 -10.2443 -8.1034 -4.7634 -5.8121 -9.1848 -5.5588 -11.4444 -10.7768 -8.7271 -6.5437
3.6196 1.0773 6.6250 -2.3016 -0.9976 -1.2817 0.8797 -8.7385 -5.0142 2.5976 -1.6994 0.2480 -5.4599 -5.2975 -0.4551 -7.4098 -3.9765 -5.4368 -2.7228 -2.4291 -11.2973 -9.5445 -4.2116 -4.9925 -7.8613 -4.8904 -10.9770 -9.8416 -7.4499 -5.2391
-3.4837 0.1608 0.0768 -0.3193 -0.9359 -0.7045 -0.6083 -8.1887 -3.2724 3.1081 0.1916 -11.7879 -7.7507 -6.7635 0.4433 -5.9175 -11.4301 -8.2187 -2.6994 -1.5468 -7.8953 -10.3424 -4.0886 -4.4774 -6.9312 -4.2789 -9.4147 -8.1536 -6.5122 -5.1838
-5.7176 1.7671 -3.4124 0.1932 0.6673 -1.9062 -0.5567 -5.3101 -1.9775 2.2708 -0.4540 -11.2252 -6.7774 -6.8431 -0.4363 -3.1865 -11.6677 -8.1580 -3.4700 -1.5926 -7.3213 -9.0473 -3.5170 -4.0555 -6.2388 -4.6501 -8.1237 -6.7699 -4.9984 -5.2387
-2.2313 3.3246 -3.1593 -1.3356 0.7424 -4.6182 1.8890 -4.8515 -2.9399 1.0254 -4.3418 -3.8088 -4.4389 -6.0658 -2.2198 -2.9561 -5.8096 -5.5286 -3.5897 -1.0192 -7.5653 -5.8053 -1.5657 -2.2720 -5.1598 -0.3985 -4.5157 -3.3273 -1.3326 -3.7206
2.2890 -0.0333 -9.8533 -1.7446 -0.6020 -4.3762 3.0509 -2.3829 -4.3455 0.5213 -5.0475 -7.1936 -3.1580 -6.2057 -2.4250 -4.0500 -2.6204 -4.5970 -2.8696 0.3038 -3.8657 -3.2740 0.0874 -0.0272 -3.4155 5.2517 -0.5289 0.8655 2.1634 -1.6348
6.7710 -4.3062 -14.3228 -0.4967 0.1079 -0.3475 1.8836 2.1408 -3.7123 0.6959 -1.4629 -11.3986 -3.1878 -7.1468 -1.2932 -5.3868 -3.5926 -5.8402 -3.3450 -0.0920 -1.9984 -3.6865 -1.2180 -0.8804 -2.9150 1.3835 -3.8742 -0.9284 1.7812 -1.3074
9.8807 -3.9662 -4.5385 1.1184 2.0760 2.4575 0.5462 0.3641 -2.8825 0.9363 0.9987 -4.5982 -4.3234 -7.6255 -0.6464 -6.7674 -4.7450 -6.7361 -5.0057 -2.1673 -5.6703 -6.3981 -4.5916 -5.0901 -5.8290 -8.4907 -12.7604 -8.7905 -2.7288 -4.1320
8.2727 -1.4686 8.0333 2.2711 1.3511 0.8843 -0.4217 -7.7049 -4.7559 0.8637 0.4832 0.6544 -5.5325 -6.8981 -0.4245 -6.1458 -4.6045 -6.3904 -5.0498 -3.0287 -6.4321 -8.4754 -6.0617 -7.7081 -9.3065 -9.8230 -15.4026 -13.1136 -7.0803 -7.9667
3.4423 0.5721 10.3452 1.4778 -1.2662 -2.7189 -0.4475 -11.3618 -7.4977 0.4525 -1.1628 -2.6010 -5.0193 -5.6451 -0.3414 -3.3791 -3.5044 -5.5722 -3.3575 -2.4961 -0.8497 -7.6755 -4.6317 -6.3122 -9.2134 -2.6574 -9.1797 -9.3145 -7.2455 -8.6723
1.6899 3.2386 6.3173 -1.0868 -1.6185 -4.3975 1.9498 -5.8181 -7.5396 0.3295 -2.4282 -2.4724 -2.9284 -5.1331 -1.0820 -0.9553 -1.6966 -5.3132 -2.9514 -2.4865 1.2636 -5.5750 -3.7199 -4.7106 -7.4207 0.0310 -3.3860 -4.0415 -4.6353 -6.7299
3.4906 5.4542 3.2859 -1.0714 0.6443 -2.8419 5.0672 2.0416 -5.2215 0.9863 -1.3837 5.1910 -0.7641 -5.2284 -1.6573 1.5852 0.1812 -5.8550 -4.1202 -2.3086 -3.2503 -5.3076 -5.0001 -5.5000 -7.2028 -3.1634 -2.7000 -3.2380 -3.5253 -5.9873
3.5032 5.2497 4.0860 3.3319 2.2723 -0.5008 5.2754 4.1121 -3.4570 1.6927 2.3543 10.1192 1.0046 -4.9963 -0.4444 5.5033 1.7707 -5.8295 -4.1021 -0.3706 -3.7090 -5.9667 -5.6777 -5.8081 -6.5229 -1.4789 -2.1408 -4.1140 -4.4097 -5.4672
3.6859 3.2814 9.9495 6.7075 2.1248 0.2152 3.1775 0.2637 -3.5862 1.7063 5.3852 7.3685 2.1017 -4.4361 1.0863 6.7196 2.8349 -4.1287 -2.7929 1.6874 2.4135 -4.8744 -4.3501 -3.9914 -3.7148 5.3895 0.1689 -3.3324 -4.8315 -2.3560
9.7588 1.1117 18.7534 5.7406 2.2289 0.3963 2.7722 -3.5195 -4.8194 1.2985 5.0805 3.6120 1.9296 -4.3027 0.4436 2.2818 2.5068 -2.3434 -3.1416 0.9495 3.6862 -4.0025 -4.0232 -3.5405 -2.6792 6.2056 -1.9989 -4.3800 -5.2730 -0.0548
16.0705 0.4729 21.8959 4.6740 3.2839 0.7041 5.4410 -2.4708 -5.4777 0.5292 2.6194 5.0412 1.2782 -5.1103 -1.5311 -1.4907 0.9648 -2.8450 -5.3830 -1.5687 -2.3470 -6.1888 -6.1211 -5.9122 -4.8193 0.3995 -9.9382 -9.3477 -7.0399 -1.8244
13.8157 1.7308 9.5610 6.3532 3.3181 -1.1608 9.2228 3.2396 -3.7330 -0.6936 -0.6433 9.5992 1.4853 -6.0569 -2.5493 0.4207 0.0943 -5.0854 -6.3606 -2.2188 -5.5712 -8.4659 -7.6792 -7.1547 -5.2165 -1.8847 -15.1698 -12.7004 -7.9050 -3.2363
5.0985 1.9420 -13.3853 8.6452 1.4100 -5.0136 10.8410 9.0553 0.0673 -1.3676 -3.9687 10.1035 2.1227 -5.7279 -2.5719 1.5732 0.4126 -6.4847 -5.2709 -1.4752 -3.4494 -7.1144 -6.9553 -5.8450 -3.1436 0.3833 -12.5647 -11.0144 -7.0554 -0.8624
-5.1469 -0.7966 -25.8633 10.0239 -1.0167 -6.4124 6.1235 9.4994 1.9185 -0.5540 -3.8725 1.6875 1.8826 -4.7597 -2.0803 -3.1933 -0.2764 -6.1911 -4.3033 -2.4538 -1.8814 -4.3570 -5.5688 -5.1682 -3.6502 1.0790 -6.5774 -8.1061 -6.9185 0.9766
-12.9444 -4.1266 -18.5651 9.0247 -2.2719 -3.2272 -4.6223 3.9855 -0.8048 1.0696 1.5492 -10.3691 0.2953 -4.9707 -0.6723 -8.4724 -2.9434 -5.4647 -4.0194 -4.0211 -2.0327 -3.9827 -4.5739 -5.5013 -6.2536 0.0608 -3.6116 -6.6133 -6.6519 -1.0197
-10.4200 -4.4413 -5.8399 3.4642 -1.6417 0.7754 -11.0887 -1.9267 -4.7570 2.1412 5.4652 -13.5061 -2.0311 -5.8775 0.3612 -9.4520 -4.5845 -5.1000 -3.6542 -3.7900 -2.1006 -5.2956 -3.5787 -4.7311 -6.5780 -0.7166 -5.2123 -5.4351 -4.0299 -3.2502
1.2496 0.1898 3.5984 -3.5822 -0.0331 1.2827 -4.5845 -4.1908 -5.8104 2.0854 1.2413 -3.9144 -3.5563 -5.7169 -0.5016 -7.0401 -2.9100 -4.4204 -3.5808 -3.2685 -3.5614 -5.6907 -2.6690 -3.8898 -6.2374 -2.3968 -8.3124 -5.0574 -1.9590 -3.1796
7.4478 6.5074 15.7719 -5.7474 0.6821 -0.8058 6.2593 -5.1187 -4.6224 1.3938 -4.9769 7.1249 -3.4828 -4.6378 -1.4185 -3.1965 -0.8419 -3.0311 -3.6301 -3.7348 -7.8809 -5.5438 -2.2059 -4.4337 -8.2826 -4.9044 -10.1081 -6.8882 -3.6599 -4.1361
4.4377 6.9341 23.8599 -3.3568 0.3236 -1.9467 7.5021 -6.6069 -3.5062 0.9796 -4.6089 6.6606 -3.2199 -4.1538 -0.7357 -1.7451 -2.0401 -2.3678 -2.9817 -3.9522 -12.3913 -6.7688 -2.2120 -4.8744 -10.2518 -7.0297 -10.9746 -9.7926 -6.9670 -7.4546
5.0514 0.9335 16.8390 -1.9728 0.4885 -1.5272 2.4128 -6.9451 -2.6284 0.9325 -1.5972 -4.6132 -4.2901 -5.0004 -0.6354 -4.7157 -5.8991 -3.6641 -2.6751 -4.1302 -13.2663 -8.7557 -2.8260 -5.0197 -10.5409 -9.5662 -12.3693 -12.0910 -9.4553 -9.6949
11.9873 -2.6023 7.3628 -2.0767 1.4773 -1.4509 2.7106 -6.5259 -1.1134 0.4142 -3.2095 -13.0660 -5.8777 -6.5279 -2.6873 -6.6793 -9.6671 -5.5578 -3.8359 -5.6374 -12.0321 -9.6170 -4.2835 -7.2044 -12.1301 -13.2919 -14.7037 -14.0684 -12.1473 -10.5016
12.3219 -0.3280 6.3736 0.4704 2.1684 -1.7674 6.3157 -5.6404 0.3738 -0.4568 -6.1736 -10.3977 -6.1514 -7.6769 -4.7299 -4.0087 -11.3418 -6.8079 -5.4436 -8.0005 -13.9081 -10.1721 -6.6782 -11.4556 -15.8736 -16.8001 -17.8355 -16.7242 -15.8077 -13.0224
4.3142 0.8971 3.2453 5.5952 2.8245 0.2434 4.3986 -1.9374 -0.1772 -0.2678 -3.8700 -4.8131 -5.4641 -8.5716 -4.9168 -2.3423 -11.2148 -8.6976 -6.9084 -10.3039 -18.1395 -12.5760 -9.8033 -15.3594 -19.3827 -17.2852 -21.3406 -20.0440 -19.7511 -16.9116
1.9187 -2.9856 -3.7105 9.0900 4.3507 5.5323 -1.0617 1.8425 -1.9029 1.1609 1.9298 -5.6230 -5.6597 -9.7570 -4.1306 -5.6112 -11.6083 -11.1496 -8.5417 -12.1361 -18.4613 -15.3542 -12.2389 -17.4997 -21.4576 -13.3474 -22.8277 -21.7347 -22.7231 -18.2819
6.3798 -7.5117 -6.7383 9.6293 5.3732 10.0067 -4.4933 1.9288 -1.2117 2.1243 5.5076 -8.0716 -5.4872 -10.0542 -3.2802 -8.5180 -11.3328 -11.0351 -9.0464 -11.6133 -13.5537 -14.2965 -11.6387 -16.8812 -20.6606 -8.0706 -19.4316 -18.6208 -21.4394 -15.1849
3.4719 -6.1294 -10.9876 8.9237 4.1350 8.5781 -5.5420 3.5112 1.2450 1.5998 5.2023 -4.0243 -1.9265 -8.1244 -2.2292 -5.4288 -5.9829 -7.4522 -7.3226 -6.9928 -7.0863 -8.8107 -7.4815 -12.3901 -14.5995 -4.0447 -12.7454 -11.4465 -13.2912 -8.9217
-5.9438 2.5719 -14.6427 7.4294 1.8376 1.3680 -1.5585 8.7491 1.5784 0.2927 1.8543 3.6558 3.1400 -5.1774 -1.4171 2.1830 2.3904 -3.2800 -4.5416 -0.0455 0.6996 -2.3508 -1.7820 -4.8569 -4.1797 3.4577 -4.8693 -3.2423 -1.0797 0.1677
-5.4151 11.4311 -2.2873 4.9525 0.5963 -5.7011 8.3147 8.8194 0.4518 -0.9409 -2.3861 7.0987 5.2531 -3.4775 -1.3430 8.3820 7.3675 -0.2891 -1.9270 5.4638 10.9072 3.0239 3.1790 2.7128 5.8641 17.3125 6.8417 5.7766 9.2441 11.7902
6.5725 13.1701 23.2826 2.7420 0.8833 -6.8809 15.3453 2.0395 0.3896 -1.6565 -3.2429 6.3734 4.9598 -3.7910 -1.2484 9.2890 9.2015 1.7683 -0.1194 7.3914 18.3531 6.4253 5.4987 6.8376 11.1028 28.1080 18.9908 13.3694 13.5283 19.8853
15.1698 11.4057 40.9090 2.1441 2.1897 -3.5241 15.0992 -1.1989 0.3788 -1.3682 0.2772 7.5794 5.3907 -4.8954 -0.3779 8.3847 11.1668 2.5406 0.4060 6.9884 18.1062 6.2972 4.6455 6.5960 11.4127 26.6190 20.0326 14.0374 12.0487 19.1841
12.9993 11.3578 37.2282 3.1065 2.8044 -1.2843 12.9853 2.4674 0.1374 -0.2975 3.7484 11.7205 6.3158 -4.5870 0.9228 11.5484 11.9787 2.1761 0.7929 7.6344 15.3261 4.6600 3.3522 5.3725 10.4101 18.4593 11.2516 9.9154 9.4999 14.5880
6.6018 8.4980 16.6243 4.2935 1.1810 -0.0790 9.4521 5.5132 0.8381 0.7069 5.2502 13.9935 5.7378 -2.9612 2.2395 15.8590 10.5371 1.7787 1.8751 9.7107 15.1207 5.2891 3.8024 5.7139 9.5915 13.8011 6.6441 8.2738 9.3878 12.3177
5.1815 0.1527 -1.7392 4.2209 -0.6528 3.7857 1.3556 3.9686 0.3132 1.5789 7.7216 11.5315 3.3153 -3.2939 3.3083 13.1497 8.3333 0.9103 1.7634 9.5220 12.7055 5.9492 3.8212 5.2899 7.3871 12.7756 7.4450 7.9499 9.6704 11.3224
8.2929 -5.8435 -4.9849 3.2803 0.0336 7.1929 -5.7776 1.5768 -2.6261 2.2892 10.2796 5.6541 0.6290 -6.5280 3.0632 3.8574 5.4959 -1.1851 -0.3903 6.1689 6.5134 3.4288 2.0968 2.7979 4.7041 11.7656 5.4718 5.2744 8.0138 10.0866
6.6586 -3.1751 -2.3542 2.9580 1.6637 4.8311 -4.5473 1.6412 -3.6575 1.8829 7.2303 0.6721 -0.1965 -8.9796 0.9172 -2.6310 3.0482 -2.8100 -2.1444 3.5023 4.7470 1.8067 1.6936 1.3872 4.1708 12.1535 4.3575 4.8609 6.5589 10.0632
-1.0721 5.0271 -2.3169 2.8813 1.3556 -0.9768 2.8878 2.7185 -0.6527 0.4158 -0.6122 2.0355 1.1306 -8.2793 -1.0024 0.5451 4.2362 -2.0018 -1.7393 3.8631 10.2012 4.8058 4.3227 2.8422 5.3715 14.7351 9.1296 9.1669 7.5493 11.5476
-5.0376 11.5914 0.1617 1.9185 -0.3870 -5.1607 9.1733 2.8203 1.9437 -0.4255 -4.8321 9.3664 2.6008 -6.2964 -0.1345 9.6495 8.0327 0.2866 -0.0607 5.9583 15.4401 8.4989 7.3158 5.3591 6.4190 17.0081 11.8210 11.4464 9.2102 12.7043
-1.5588 11.8698 5.0608 0.4854 -1.1026 -6.0294 10.6549 2.2839 1.1219 0.1689 -2.7357 13.0752 2.6174 -4.9882 2.2827 12.9348 9.2841 1.6529 1.2423 7.6070 15.6746 8.7023 7.9051 6.9963 6.3371 18.2123 7.8649 8.4872 8.5966 10.8758
4.1030 7.7796 10.2616 -0.6637 0.2852 -3.8053 8.7032 0.0268 -0.4570 1.0747 -0.0358 5.7546 1.3820 -4.2819 3.0795 5.8264 6.9616 1.6614 1.1008 7.0617 13.6896 6.7011 6.3543 6.6187 4.3530 18.4989 4.8023 5.3666 5.8395 6.0430
9.8683 4.7472 19.4032 -1.1076 2.2189 -1.4563 6.4723 -4.9561 -0.1207 1.0244 -0.0117 -3.3183 0.0138 -3.8511 1.7917 -1.5411 4.8108 1.8364 -0.2518 4.0253 12.1030 5.2685 4.7815 3.9659 0.7647 16.6086 5.8291 4.9332 3.6812 2.0683
13.1179 3.8715 23.8270 0.1583 2.2178 -2.8303 5.5087 -6.4484 1.3729 0.2325 -1.1837 2.1540 0.1772 -3.5457 -0.4281 -2.3067 5.2339 2.3631 -1.8397 -0.2615 8.9788 5.0957 3.9987 0.0779 -3.6341 12.1294 6.1428 4.6151 2.8554 -0.3468
6.2441 2.8139 9.3255 3.4340 0.5045 -5.6574 3.7246 1.3200 2.1878 -0.2186 -2.3947 16.1670 2.1204 -3.4147 -3.3739 -3.4426 6.3997 1.0981 -3.7410 -4.6773 2.8272 4.4876 1.9755 -4.4979 -9.5798 5.4673 3.6557 1.7688 0.5474 -4.6008
-5.2248 0.7873 -12.8428 6.1936 0.0131 -3.9448 -1.5566 9.4875 1.2680 0.0583 -2.2507 14.0820 2.4034 -4.5940 -6.0712 -7.9147 4.1815 -2.8281 -6.5432 -8.2332 -3.7967 0.8193 -3.1369 -9.9428 -16.4654 -2.8010 -2.7503 -4.8000 -5.2198 -9.3413
-3.1503 -1.7917 -17.7479 6.0058 1.8389 1.8496 -6.5056 5.9778 -0.8849 0.5289 -0.3362 -5.1838 -1.4052 -7.3593 -6.8550 -9.2644 -1.9367 -6.8441 -9.4687 -9.9088 -9.3828 -5.5990 -9.4248 -14.8743 -20.5717 -9.8160 -13.4817 -13.4790 -12.2999 -10.5377
8.2226 -2.6253 -4.5769 4.6305 3.4466 4.5106 -5.1114 -3.9463 -2.0680 0.5905 0.0033 -16.1112 -5.5159 -9.0231 -6.3332 -7.5015 -6.9282 -8.2569 -10.7670 -9.6761 -15.6543 -10.8128 -12.8232 -16.7838 -19.7655 -12.2756 -20.2785 -18.3782 -16.5153 -9.6524
6.5469 1.3296 8.4244 2.9104 2.6109 1.1181 -2.4849 -8.9317 -1.1957 0.3876 -1.1673 -12.6290 -6.2861 -7.6994 -5.4872 -6.3295 -8.2695 -7.2489 -9.3687 -7.3898 -20.9148 -12.3967 -11.7219 -14.5611 -15.4312 -10.8025 -17.1122 -16.3013 -15.4406 -8.5574
-3.1623 6.7325 15.0371 -1.7078 0.8585 -2.0188 -5.6297 -10.7492 0.4067 0.6805 1.0434 -12.1472 -6.5015 -5.8920 -3.2804 -2.3843 -9.7601 -5.8163 -6.3061 -2.9252 -20.5373 -11.9454 -8.4112 -9.6546 -9.9923 -8.0834 -11.6287 -11.3880 -9.9347 -4.6662
-0.5082 5.9447 15.1096 -4.9429 0.9465 0.0629 -6.1792 -11.3507 2.0076 1.3376 4.1869 -14.7596 -7.9513 -6.4960 -0.8375 3.6967 -13.1520 -6.3359 -4.5544 0.4047 -16.5461 -11.6273 -6.2258 -5.8118 -6.6538 -5.4669 -9.0049 -7.7887 -4.5090 0.6721
3.8679 -0.5647 -1.1781 1.5604 2.4398 2.5209 2.2124 -2.7469 3.8699 1.1092 1.2957 -8.7417 -6.6387 -8.4249 -1.8532 2.9824 -14.2289 -9.4737 -5.5725 -1.3362 -15.0852 -11.6061 -6.2398 -5.8930 -7.5518 -4.9822 -5.8206 -6.0820 -4.9818 0.8137
-7.2623 -4.3443 -25.7734 12.7376 2.7686 0.6308 8.2430 11.5575 5.2332 -0.1408 -4.3870 -4.2012 -1.8452 -8.9214 -5.1850 -4.0711 -10.5536 -11.5488 -6.9723 -5.2757 -15.1329 -10.6398 -6.4985 -7.7311 -9.8713 -7.7929 -4.5741 -6.3530 -10.0269 -3.3603
-15.1750 -3.1337 -26.3691 14.5484 1.3430 -1.2722 5.4755 13.4366 5.1990 -0.7506 -4.7737 -11.1232 0.8111 -7.2203 -5.1474 -7.1609 -5.6557 -8.3478 -5.8155 -5.0480 -12.1271 -7.7737 -4.3485 -6.5911 -9.1685 -8.6859 -7.4786 -6.3558 -10.5155 -3.2420
-0.4701 -3.2511 -0.0085 4.3633 -0.5111 0.6124 0.6384 0.1702 3.2423 0.3509 0.0471 -11.5015 -0.6721 -4.8117 -0.8888 -5.2666 -3.0274 -2.0245 -2.3608 -0.6265 -7.7830 -4.1847 -0.0392 -2.0018 -5.9556 -2.9826 -6.5449 -3.0617 -4.1690 1.8531
17.3104 -5.3729 20.0030 -7.7795 -2.0752 2.1497 -3.3778 -11.3427 -0.9202 2.0748 4.5587 2.6987 -2.0707 -3.4986 2.7526 -4.5383 -1.8156 1.9110 1.2443 3.2789 -5.1530 -2.0185 3.6024 2.3399 -3.5783 4.0766 0.3231 1.1919 1.2563 4.6577
15.8282 -1.4199 22.9030 -13.1161 -3.2646 -0.6908 -3.8302 -12.2455 -5.1245 2.7220 4.3665 9.0825 -0.6566 -3.0358 3.5872 -2.4234 0.5556 3.2815 4.1742 5.8153 -1.3685 -0.1580 6.0846 5.1854 -1.6241 7.6548 5.2113 3.7091 3.2821 4.6504
6.8359 8.9543 24.8742 -11.6087 -3.6334 -5.7652 5.5317 -7.9985 -5.6857 2.1843 -0.7733 1.7078 2.5906 -1.9557 3.8087 5.5638 5.3359 5.6751 6.8935 9.2940 5.9290 4.5632 9.7800 8.8010 2.7786 12.1749 8.1992 7.5433 6.7790 7.1347
7.8622 13.7373 26.0005 -8.2103 -2.8898 -8.1075 16.9151 -3.2337 -2.3426 1.7266 -4.4089 0.1830 5.7913 -0.9948 4.6693 13.0649 10.3604 8.4577 9.1219 13.3894 12.0055 10.2537 14.2954 13.4246 8.7861 18.9623 14.4985 13.7215 12.1355 12.2960
11.0113 8.2773 18.9546 -5.6799 -1.7099 -5.3426 14.7249 -0.2662 1.3670 2.1662 -0.1613 6.1574 6.9962 -1.5924 5.7583 14.2099 11.4911 8.6541 10.3345 16.6634 12.7748 11.6150 16.4500 16.9134 13.5159 21.8946 19.3493 17.4698 16.3628 16.9785
5.1763 3.0556 13.9701 -3.6254 -0.9659 -0.3902 3.6327 -1.7706 3.1635 3.2533 8.0344 7.7562 6.0255 -2.2199 7.5406 14.8538 9.3303 7.6067 11.0342 19.9188 12.9346 9.8036 16.2239 19.2263 17.4360 20.5928 16.9717 17.5036 20.0013 20.6065
-0.0316 3.4023 14.1472 -1.2111 -0.4742 2.7052 1.3768 -3.0015 4.2973 4.1622 11.6798 8.8004 5.0276 -1.7593 9.6001 19.4173 7.9768 7.0565 11.1070 22.5405 16.9865 10.0127 15.8472 20.6267 20.7228 20.3182 13.5676 17.9763 23.1057 22.3971
1.9165 1.8107 3.1138 2.9744 0.0392 3.0140 7.5831 3.9280 5.8267 3.6843 9.7316 13.4171 4.9119 -2.5478 9.0633 20.2956 7.2300 4.4099 9.2813 20.5941 19.4475 10.9296 14.7934 18.6681 19.6907 20.0912 15.6789 19.3734 22.4081 19.7779
-1.8458 -2.3854 -16.3916 8.4819 -0.1752 0.0737 8.4143 13.5101 5.9342 1.3287 5.5977 12.8992 4.9323 -5.1117 4.8721 11.5447 6.4065 0.0986 6.1042 14.0449 15.0688 9.2677 12.1392 13.5274 14.2788 15.6364 17.4721 17.8507 17.8148 14.0196
-12.5131 -1.5608 -19.6710 10.1546 -0.9714 -4.1350 3.1468 12.4682 3.8061 -0.8675 1.1473 5.5961 4.7985 -6.3458 1.0139 1.6143 7.8548 -0.3619 4.2840 9.7454 8.9369 8.1982 9.9375 10.4064 10.7242 9.3409 12.8689 13.8470 14.3052 10.7321
-12.1653 0.2924 -8.3125 5.0217 -0.7918 -2.8058 -1.5675 1.8649 2.2849 -0.2230 0.6195 0.2452 3.5378 -5.6464 1.4389 0.7783 8.4569 2.4001 4.6090 11.1519 6.2532 9.0382 9.3103 11.2807 11.3758 6.7958 8.1424 11.8208 14.1173 11.4626
-1.7794 -3.7448 -4.2378 -1.6493 0.3239 3.7223 -7.1114 -5.1540 2.9481 2.1225 6.3375 -1.4430 0.7099 -5.5916 3.8169 5.1756 3.4468 2.1220 4.7992 12.6969 4.4183 6.7779 8.5469 11.9293 11.9794 8.6243 9.7621 12.3358 13.9501 12.3143
1.5923 -5.5686 -3.6739 -3.4441 1.0108 5.2885 -10.4355 -4.3293 3.6615 2.4858 9.7035 -4.4021 -0.7811 -6.7796 3.1980 5.1327 -1.3465 -0.5501 3.3271 10.1331 1.8416 1.9045 7.1438 9.8088 10.3760 11.6358 12.7955 12.4243 11.9536 11.6316
1.4986 -0.9350 4.2981 -0.2297 1.5728 0.9067 -3.2786 -1.3593 3.5181 0.4189 4.0433 -9.1786 0.6611 -8.0294 -0.0632 0.6197 0.0106 -1.2966 0.9113 6.6059 0.6233 0.1230 5.7325 6.4930 7.4154 12.1733 11.3535 10.7143 9.4114 9.8864
6.0924 0.1517 6.3871 4.2481 2.5697 -0.4298 6.5108 1.3169 3.6606 -1.3917 -2.0738 -12.0306 1.8698 -8.7949 -1.8465 -0.9857 1.3007 -1.9539 -1.5278 4.8595 -0.9464 -0.1061 3.4865 3.0957 2.8502 6.8846 7.0700 6.9928 6.0659 5.8206
3.7167 -2.0090 -0.4654 6.9709 2.8918 0.4508 5.8211 3.7328 3.5047 -1.8025 -1.0116 -8.5923 1.4548 -8.2118 -1.4048 3.0204 -1.3187 -3.9715 -3.1645 3.6415 -5.1686 -2.6302 0.7187 0.2541 -1.8344 -2.5757 2.4442 1.8886 2.2118 0.6482
-5.3222 1.6898 4.8534 7.0797 2.2069 -2.6764 1.4355 3.1369 2.6921 -1.3879 1.5125 1.7825 1.9900 -6.0401 -0.8529 6.5251 -0.8549 -3.2870 -3.3143 2.3165 -8.5512 -3.8643 -0.2627 -1.0121 -3.9930 -8.6589 -2.3186 -1.6770 0.6315 -2.3428
-1.7860 6.8288 21.7089 4.7981 1.6354 -5.7074 4.4524 -0.3858 2.9455 -0.3146 0.6663 10.5616 3.2262 -4.3094 -0.3591 4.9262 3.8799 0.3944 -2.6339 2.0195 -8.1331 -1.2170 0.7220 -1.1835 -4.6332 -7.4575 -5.7088 -2.0357 1.2506 -3.5043
8.9927 7.1505 26.1519 1.1674 1.3372 -4.5738 9.3842 -2.5438 3.7455 0.6773 -0.9636 7.8299 2.4877 -4.3931 0.5061 3.2953 4.3566 2.0374 -1.9527 3.0365 -6.1924 0.8467 1.8876 -0.8164 -4.8856 -2.5675 -5.8114 -1.1931 1.7382 -2.9731
5.2295 6.7561 16.4494 -0.0433 1.0123 -4.1213 8.1298 -2.1732 2.6145 0.3506 -2.1350 -1.6689 0.9720 -5.1150 0.2941 4.0435 0.0600 0.7190 -1.3227 3.5214 -4.7172 0.2114 2.6695 0.1638 -3.9855 0.6650 -3.3709 -1.0624 1.8940 0.0261
-6.2130 5.0694 7.1319 3.5282 1.2466 -4.4869 2.5823 -0.6966 0.3937 -0.3443 -1.9407 -2.7627 1.2630 -5.1340 -0.7545 1.3383 -0.3685 -0.2723 -1.1834 2.1717 -3.1228 0.3479 3.0004 0.3913 -3.7783 -0.9928 -1.4260 -1.7728 0.7941 0.6291
-5.8237 -0.7100 -1.1941 6.1224 1.8526 -0.8243 -2.4811 1.9817 -0.0341 0.4444 1.9733 4.8413 2.0027 -4.2402 0.2798 -2.1984 3.4635 0.0050 -1.2426 1.7526 -1.7220 2.2828 2.9454 -0.0566 -4.6449 -4.6478 -1.2182 -2.0604 -1.6518 -3.2165
1.5797 -2.9613 -8.2574 2.3986 1.6900 2.7591 -3.3117 4.4896 1.5680 1.6425 5.8382 4.8532 1.2003 -3.1798 3.0625 0.9276 4.0533 0.4776 0.0463 4.7919 -1.6499 3.4004 3.8645 1.6435 -2.2282 -2.3190 0.6360 0.9032 -0.0655 -3.2399
3.3641 1.7406 -6.8147 -1.4055 1.1149 0.7636 1.6840 4.8274 2.9473 1.2784 3.9055 -3.1225 0.3066 -3.2722 3.7568 4.9950 1.3474 0.7751 2.2656 8.2129 -1.8410 3.4383 6.0380 4.9879 3.1825 6.2300 5.5665 6.5375 6.9750 3.4558
3.0754 4.6617 -1.6996 0.8839 1.2904 -1.8079 7.9745 4.1222 2.2348 0.5271 0.1290 -2.1346 1.0662 -4.0043 2.5891 5.3949 1.3124 1.4171 3.6467 9.7039 0.0442 4.7140 7.7265 7.0235 6.6894 11.7754 8.0354 9.1875 12.0288 9.0243
6.2649 3.1267 -0.1637 3.1899 1.5872 -0.8335 9.4831 2.7315 -0.1429 1.2000 1.3180 5.8032 2.5654 -2.7959 3.5647 10.1575 4.1235 3.6589 4.9482 12.3477 3.7740 7.8164 8.9817 9.1869 9.4279 11.3368 5.8570 7.8267 12.9052 11.3743
8.6172 2.8615 2.7820 0.1982 0.9569 -0.4230 7.1856 0.3847 -2.2539 2.3395 4.8436 5.6456 3.4890 0.2622 6.0960 17.2534 5.8410 6.9920 7.0381 16.1781 6.3426 10.4390 11.2648 12.9865 13.6562 10.7859 5.6905 8.1589 14.6411 14.0227
8.8190 3.8266 9.7754 -2.9578 0.0984 -1.9371 6.4498 -0.3908 -3.2310 2.6283 5.2076 2.6138 3.8493 1.5937 6.0959 14.8749 6.0263 8.2270 7.7321 16.5970 6.7400 10.4302 13.4907 14.6697 14.9052 12.4995 10.9923 11.9744 16.5678 14.8066
11.1331 3.1137 16.3399 -2.5944 -0.1829 -1.6546 8.3067 -0.2334 -3.2509 2.4745 3.7132 7.0953 3.8157 -0.0051 4.3883 8.1794 6.5807 6.8079 6.2680 14.6003 8.0055 9.3380 14.0262 13.0740 12.1144 14.0629 17.0023 15.7208 15.9735 12.7014
11.5423 3.1494 18.8226 -1.5120 -0.1471 0.4841 9.6207 -1.5905 -2.0407 2.2490 3.1807 11.6108 3.6032 -2.0190 4.4453 9.3325 7.4371 5.7252 5.4465 15.2347 11.0431 10.0901 13.8719 12.7575 11.6988 15.1849 19.7455 17.5877 15.8604 12.5640
3.6760 5.1685 14.2407 -0.5246 0.0343 0.6889 9.0594 -0.3003 -0.0684 1.7188 2.8485 10.0675 4.0827 -2.8400 5.1622 12.3144 7.1595 5.7004 6.2626 17.0630 12.2179 11.8567 14.2978 14.7675 14.7163 16.8345 20.0694 18.3270 17.3373 15.2399
-4.3253 4.0606 5.1491 1.7809 0.2194 -1.2149 6.4904 5.4163 0.5721 1.2415 3.2811 6.9160 5.3317 -2.7350 4.4432 7.4034 5.7549 5.4583 6.6174 15.5675 11.0937 12.1066 14.8888 15.3393 15.4434 17.3620 19.6562 18.8704 17.5833 16.8413
-4.0675 -2.2099 -0.5053 4.4788 0.3761 -0.0821 1.2041 7.9676 -1.1765 1.4003 6.3110 2.9154 5.7775 -2.1793 4.0003 1.4246 4.4443 5.1324 5.7878 12.3370 9.8923 10.6597 14.4114 13.4874 12.6678 14.0393 17.2009 18.0110 16.0310 15.4270
-4.9963 -5.9057 -2.0232 6.3197 1.2489 5.5319 -3.3867 4.7420 -3.3921 1.9527 8.8702 -1.1359 4.4199 -2.0826 4.9974 3.4250 3.4308 4.3618 5.1249 11.6097 6.6332 8.1134 12.0031 11.5211 10.0631 7.7625 10.5857 13.1556 13.1309 11.3808
-11.9781 -1.5750 -3.7278 6.4013 2.5543 8.6037 -2.2506 2.0942 -3.8145 2.3367 7.5555 -0.8841 2.4271 -2.7888 6.1175 9.5397 2.2913 2.4867 5.4656 13.3334 2.0993 5.5035 8.9482 10.8970 9.4794 3.6744 3.4941 7.0871 10.2559 8.2349
-10.2205 3.7994 -3.2453 3.0349 2.7419 5.3683 1.6800 1.2862 -3.0230 2.6676 5.8783 2.8102 1.3673 -3.2084 6.9691 12.8329 2.1532 1.3789 6.4052 14.8327 2.2679 5.1928 7.7285 11.2609 10.4579 4.1949 2.9756 6.3983 10.8563 9.9347
4.2607 3.9172 0.9988 -2.0811 2.0721 0.7222 3.7367 -0.6158 -2.6853 2.9055 5.5992 7.8704 1.4540 -2.8342 6.9194 11.7661 4.3325 2.3227 6.7581 14.6874 4.9790 7.0897 8.2897 11.2825 11.8247 5.7876 8.3634 10.3144 13.7748 13.0149
12.8352 2.7894 -1.1680 -3.6645 1.8671 -2.8256 6.8563 0.6385 -2.5107 2.1578 1.8681 10.6771 2.0294 -2.1564 4.3157 6.1058 6.3269 2.7571 5.5134 12.8909 3.9648 7.5569 8.5016 10.1333 11.6893 6.2139 11.7041 12.1422 13.4445 11.6590
7.9329 2.0843 -14.1569 -0.7645 1.9632 -4.9338 9.8262 7.7579 -1.8303 0.9413 -2.4741 3.2398 1.9801 -1.5765 1.0850 -1.6342 4.0125 0.5370 3.1420 10.2649 2.6969 4.7992 7.3783 8.0348 8.6913 6.3092 9.7308 9.9698 9.2883 7.3033
3.0941 -1.2779 -18.5696 2.1699 2.4794 -1.4363 4.7348 10.2545 -1.1993 1.3225 1.7586 -7.3214 0.2777 -2.0456 0.8907 -4.4421 -0.5142 -2.0245 1.0417 8.2708 3.5698 1.3740 5.0170 5.2848 3.9203 4.6818 5.2606 5.6868 4.7713 3.2556
4.8570 -2.5663 0.5039 2.5304 3.9156 4.9452 -2.9377 1.0904 -0.1563 2.5923 8.7263 -4.8034 -2.1548 -3.9514 2.0440 -1.0169 -1.1164 -1.6864 -0.0884 7.6544 1.1901 0.5605 2.3258 2.8962 0.4819 1.8435 0.0046 0.6859 1.8623 -0.1988
5.5809 3.5487 22.0103 1.3826 4.3000 3.8332 0.3078 -8.1879 2.0215 1.8946 5.1547 1.5805 -2.7156 -5.1359 1.0604 2.4038 1.5082 0.8860 0.0883 7.9967 -2.0187 2.4171 2.0830 2.9408 0.5064 3.4930 -3.1081 -0.6988 3.2627 -1.0661
1.2337 9.8589 19.4134 0.2207 1.7290 -4.0507 8.9323 -7.0355 3.1260 -0.1475 -3.9549 -3.0261 -0.3887 -3.7753 -0.1577 4.6891 2.7788 3.0003 1.9453 9.1710 0.9590 4.4890 5.7586 5.6756 3.0626 10.2806 0.6422 5.1513 9.9935 2.0522
-3.4228 8.4734 1.6644 -0.0624 -1.4389 -8.0858 7.8125 -2.5741 1.2099 -0.8509 -5.6525 -3.5240 2.7876 -1.6365 0.7240 7.8569 4.6445 3.9272 4.0564 10.6040 6.3683 5.6385 9.6132 8.1773 4.9619 14.7456 7.8116 12.1222 15.3942 4.9739
-3.5698 2.9537 -8.3381 0.5877 -1.9893 -6.3423 0.1053 -2.4936 -1.3303 -0.4724 -2.1658 9.7087 4.1554 -1.0571 1.3194 6.4924 8.8832 4.0373 4.1355 10.5235 8.1028 6.3412 9.5059 8.2008 4.1741 13.8857 10.1729 12.1850 13.4058 4.8502
-1.3681 -0.2093 -8.2698 0.7441 -1.1305 -4.7867 -2.0549 -2.8877 -1.6697 -0.1288 -1.2687 15.4197 3.8520 -1.1993 0.6278 -1.5492 10.4592 3.9704 3.4871 9.5964 7.5757 7.0640 8.0399 8.0003 3.5598 13.3141 9.9651 9.6525 9.8189 6.3327
-0.7551 0.5979 -1.7276 -1.1597 -1.7658 -5.1442 1.0881 -2.0154 -0.3980 0.7498 -1.7322 7.6488 4.2184 -0.4757 1.1546 -6.4112 9.3838 5.6224 5.1777 10.4512 8.0330 9.2947 10.0997 10.5824 6.9318 15.8238 14.7400 13.1426 12.8427 12.3587
1.3297 3.5361 11.9874 -4.3348 -2.8251 -4.8913 4.0256 -2.8227 0.9700 1.8802 -0.8076 6.1793 5.4882 -0.0270 2.6960 -2.9524 11.2493 8.4717 7.7745 12.0265 10.8367 13.0319 13.8921 13.6670 10.9395 17.1673 21.0016 19.0940 18.0041 16.2088
5.1600 4.7795 14.4018 -5.6874 -1.7534 -3.1613 5.8726 -0.7858 1.9949 2.3015 0.3158 12.0537 5.8390 -1.0978 3.2365 1.9126 13.0416 8.2548 8.1552 12.3021 14.1510 14.1788 14.8946 14.0633 10.8304 16.2752 21.1991 19.7458 17.3244 13.9874
3.1350 1.8801 -10.1492 -3.5168 -0.1568 -1.7865 5.3378 6.5886 2.5620 2.6937 1.4682 11.2042 5.1050 -1.9604 3.7477 3.6330 9.6197 4.6551 7.5397 13.2016 14.0253 11.3429 13.9751 14.0095 10.3723 17.0723 17.7927 17.6153 14.6481 13.7363
-2.1293 -1.8282 -30.0650 0.0753 -0.3118 -1.8015 2.4076 8.2899 2.5332 3.5392 3.5674 4.5572 3.4200 -1.5011 4.9865 5.1510 4.8541 2.1730 7.4024 15.1391 10.2751 8.0437 12.8797 14.8065 12.7128 17.8345 14.8784 16.2670 15.1282 17.9242
-1.9781 -1.4012 -14.7436 2.7023 -0.2819 -1.5072 1.8376 0.0441 1.9136 3.7265 5.3772 -0.7910 0.2247 -1.5874 4.9225 8.7144 1.4173 1.1979 5.7335 14.9532 5.6461 4.8793 9.9596 13.0333 12.7647 13.4607 10.8656 12.7521 14.5251 16.4471
-1.8957 1.3789 5.8554 4.8437 1.2784 -0.3115 4.5037 -5.0718 1.3721 2.8517 4.7121 -2.0559 -1.9080 -2.7198 3.1407 11.2608 -1.6973 -0.8477 2.5398 12.7515 1.9326 0.9764 6.1458 9.3096 9.2012 6.4433 6.9500 8.1911 11.7144 8.5315
-5.6140 1.4670 1.6036 5.8640 2.2842 0.0287 5.8397 -1.4771 1.7029 1.9402 2.0280 0.2891 -0.5463 -3.1285 1.8674 9.0678 -1.2284 -2.4626 0.9213 11.3638 0.2724 -0.8432 4.5190 8.0994 6.7426 1.4827 5.4939 6.5904 11.3038 4.1802
-2.5730 -0.1043 -3.7888 2.8898 2.2594 0.0802 5.3196 0.1570 2.3640 1.7339 0.4706 -0.6635 0.5406 -3.0742 1.8782 5.2875 1.8651 -1.8758 1.1098 10.7975 -0.8544 -0.0028 4.0644 8.3893 5.0100 -1.8551 3.9270 5.8600 11.2663 3.4028
5.7561 0.0250 5.9271 -1.8839 2.4505 1.4995 4.8638 -4.7004 2.6380 2.0458 1.0845 -5.9492 -1.6886 -3.7382 2.0256 5.2473 0.2528 -0.9143 1.0393 9.8619 -3.6224 0.6504 3.4295 7.1349 2.4379 -2.2542 3.2290 5.3254 8.4642 1.9818
4.3217 0.3842 7.4394 -2.3450 2.2524 2.2855 2.8685 -7.9727 2.7554 2.3460 1.5759 -7.3694 -3.2608 -3.7257 1.9985 6.4310 -4.2039 -0.3375 0.9876 8.9812 -4.4246 1.7033 4.7119 6.2974 2.7938 2.5161 7.7903 8.4528 7.6166 3.7222
-4.2220 -0.5804 -5.9102 0.7423 1.4448 1.1372 -0.0437 -5.1298 2.4889 2.6088 1.4794 -6.1907 -1.5733 -2.1694 2.6804 5.0199 -3.3837 0.6924 2.1148 9.1662 0.0908 4.3628 7.4684 7.7713 6.3671 6.7212 12.3266 11.8553 10.0498 7.3900
-6.1014 -1.0835 -14.1323 1.9526 1.5963 1.2187 0.2245 0.3631 1.8842 3.5168 3.1985 -6.3527 0.5852 -1.1374 4.5543 4.1590 1.7124 1.2979 3.8930 11.0899 5.2748 6.3303 8.2867 9.8441 8.3576 5.1520 9.7900 10.3253 10.1857 5.8983
-3.8520 -0.2757 -12.8077 1.2000 2.5138 3.0340 2.7468 5.2962 2.0215 4.9668 6.7597 -1.7730 2.1139 -1.2022 6.8658 5.2022 5.3753 1.2820 5.8590 14.3740 7.2754 7.1363 8.0490 12.0836 9.2374 4.1138 7.2637 9.3286 9.8250 4.5145
-3.4823 0.7144 -8.4074 0.5805 2.2481 3.2318 4.4508 7.4835 2.5282 5.6151 8.9830 6.1607 3.5783 -0.2558 8.3852 4.9887 6.5187 2.5139 8.2984 17.6786 8.7094 8.7544 10.0887 15.5418 13.1191 9.0072 12.4688 14.6891 15.6524 11.7086
0.6904 0.7021 -0.1281 -0.4594 0.9013 3.4368 6.9831 5.3220 2.2021 5.2181 8.8758 7.3487 3.2758 1.5153 8.9620 6.1611 5.6966 4.5638 10.2934 20.1335 10.0996 10.2083 12.7852 18.2553 17.8172 13.0081 17.8476 19.9451 22.5676 18.3991
5.4998 0.6919 6.4926 -0.9637 0.2624 6.2256 9.9224 1.9152 1.5171 4.7812 8.3148 4.1247 1.2318 1.5450 9.0654 12.4799 3.3841 4.5215 10.1984 20.9789 9.0751 9.3562 12.3737 17.1343 17.3166 10.9902 16.1553 18.2811 20.5578 13.6980
-0.6045 3.2822 2.8405 0.3068 0.5455 5.9226 8.6912 0.5766 0.7242 4.1019 6.8474 4.9008 0.1454 -0.1910 8.0685 16.6786 1.8188 2.1579 8.3372 19.3162 7.6529 7.2326 9.8880 13.4968 11.9066 8.9635 13.4653 14.2963 13.6936 6.5286
-9.7490 6.2615 -7.2600 0.8179 0.9182 -0.2660 4.7034 0.1763 -0.6078 2.8377 3.1146 5.8138 0.1277 -1.4551 5.7739 11.6045 2.3202 0.0394 6.7175 16.1603 8.5027 5.8949 8.6366 11.5348 7.9896 9.9971 14.4227 13.5357 12.1544 8.1801
-7.4885 5.4561 -14.0700 -0.7897 1.4959 -3.7321 3.9549 0.3837 -1.0372 2.3579 0.1211 0.0401 -0.1529 -1.5695 4.3135 5.1054 3.6485 -0.4997 6.2138 14.0603 9.2608 5.5809 8.8049 11.9593 8.4381 9.2977 15.2210 14.2612 14.4089 12.5989
-0.3640 3.9011 -10.1499 -2.3923 2.0182 -0.3461 5.7145 0.2746 0.2337 3.1955 1.0456 -5.3246 -0.1275 -1.1925 5.2280 6.7812 4.8603 0.4034 6.4688 13.9895 8.5305 5.9660 9.2665 12.2805 10.0103 7.4366 15.7385 15.2430 14.8800 11.4951
2.5619 4.3614 1.3586 -3.2224 1.7608 3.1529 5.0059 -2.7613 0.5226 3.8233 3.8127 0.1485 0.2427 -0.8824 6.7119 11.6212 5.8168 1.8990 7.1026 14.4398 8.3187 6.5573 9.6288 11.6528 9.9040 8.5288 17.1676 16.3010 14.7676 8.6623
4.9566 2.9021 3.8317 -2.4771 1.8097 3.3609 3.3736 -3.5784 -1.4120 3.4451 4.8918 9.0518 0.2355 -1.5747 6.1845 10.4029 5.7179 1.9779 6.8469 13.3832 7.3818 6.0905 8.4703 10.2879 8.0773 8.6415 13.0166 12.5384 13.6755 8.1660
4.6660 0.3148 -6.0623 2.1198 2.8094 2.0227 5.6330 2.7346 -2.4296 2.6032 3.3446 6.9102 0.9366 -3.0312 4.0206 5.1422 4.9092 0.6889 5.0613 11.3388 4.1476 5.2159 5.8329 8.2981 5.4068 4.7925 2.8790 4.2252 9.3066 7.1350
-2.7745 2.3113 -8.4862 6.7388 2.4468 -1.3812 9.1743 6.2770 -1.1605 1.6929 0.7476 -0.8791 2.7521 -2.9728 3.1109 4.2662 5.1697 1.4659 4.2863 11.3676 3.6090 6.9868 5.7143 8.1313 4.7294 4.2016 -0.0782 2.4719 7.5342 5.9851
-8.4572 6.5171 1.7071 3.8516 -0.1457 -5.0726 7.8475 0.8407 -0.5060 1.2744 0.1313 0.6112 3.7248 -1.1938 4.6950 8.2766 6.0719 4.6277 6.0012 13.7696 8.8409 11.2718 9.4641 11.2977 8.3157 9.4103 8.8354 10.8016 13.2322 9.0413
-5.5845 5.6582 4.3492 -3.4031 -1.9018 -3.5649 2.8153 -1.6713 -1.2217 1.9977 2.5164 8.0373 3.5003 -0.4458 6.4913 8.9092 5.9139 5.7968 6.9830 14.5220 13.1790 13.5394 11.9198 13.4746 11.8879 11.4134 16.8607 17.1299 18.1055 12.5642
0.2498 0.4880 -3.6032 -5.6657 -0.9151 2.5525 -0.2768 2.5087 -0.9688 3.2587 4.9705 9.4798 3.3339 -1.2885 6.2674 3.9326 5.1888 4.0910 5.1569 11.9043 10.8449 11.6109 9.5630 10.6871 9.2390 7.5452 15.0780 13.3982 13.9535 8.6213
3.4542 -1.1258 -2.3920 -4.4234 0.5807 5.8720 -0.3785 0.9013 -0.1794 3.7058 4.5286 5.6950 2.6042 -1.7144 4.5485 1.4189 4.3884 3.2834 3.3132 9.2740 5.9963 8.4779 5.9413 6.5721 3.5064 5.9750 9.1877 6.5461 6.6254 1.8199
1.8267 2.4667 4.7760 -5.5800 0.2469 3.1907 -0.2759 -5.1562 -0.4606 3.0803 1.9306 2.0361 1.4946 -1.3646 2.6911 3.6142 3.0824 4.1414 3.4284 9.1006 4.9377 7.5882 5.4570 6.3280 3.4413 8.1418 7.1789 5.6037 5.3160 3.2747
-2.2708 3.0582 -2.4478 -5.4977 -0.6498 -0.0731 -0.8618 -3.2897 -0.4229 2.4984 0.3042 -2.0021 2.0487 -1.1434 1.5892 3.6016 2.3299 4.1444 3.7556 9.7086 6.9256 8.6225 7.2356 8.2715 8.0130 7.3373 9.5646 9.8778 8.7587 9.3463
-1.8736 -1.5633 -13.7527 -1.2996 0.1251 1.5730 -0.8610 0.8091 0.2712 2.9795 1.3262 -5.9151 2.8154 -1.0458 2.2233 2.3248 2.3615 2.9673 3.2632 9.3743 6.3833 8.2208 7.7056 7.8961 8.2723 3.6537 11.3242 12.3246 10.3054 8.9840
0.2887 -1.7756 -9.1417 1.0444 1.8201 5.4768 -0.1095 -1.6279 -0.4997 4.0764 3.6173 -4.4935 1.5004 -1.0800 4.3934 5.8976 1.9222 1.9445 3.1113 8.8652 1.6035 5.0460 5.9617 5.6068 4.0712 2.2453 8.0151 8.9781 8.5960 5.0987
-3.7670 3.8308 -1.2918 0.4811 2.7461 6.3113 0.5304 -0.8745 -2.2388 4.5715 5.5896 2.5776 0.6272 -1.5705 5.9550 8.6821 1.1356 0.8472 2.9401 8.5408 -2.2304 1.9994 3.7145 4.1277 2.1148 2.8586 1.5585 2.9311 6.1083 4.8484
-6.9308 3.7595 -3.4466 2.5954 3.3466 5.3327 1.1591 5.3790 -2.8363 4.4827 7.2421 4.5534 1.2057 -1.7857 5.6266 3.9520 -0.6799 -0.7103 1.2992 7.5747 -1.4824 1.0986 2.3250 3.4023 1.8645 3.6666 -0.2327 0.5496 4.1889 3.8535
-1.1133 -2.9240 -3.1910 4.8413 3.6065 5.3585 1.9814 2.8760 -2.7221 4.6416 7.3098 -3.4170 0.1831 -0.4892 4.8398 -1.3169 -4.0579 -0.7800 0.2262 7.1723 0.6775 1.6587 3.0361 3.7253 0.8606 5.7967 5.8287 4.6238 5.2137 -0.0377
3.9195 -4.4476 3.8554 0.7275 1.8562 3.2725 2.7165 -6.7247 -3.3004 4.5397 3.9930 -8.5459 -1.2609 1.7909 4.9377 -1.4099 -5.5844 2.1622 2.7973 9.0701 1.8805 3.8006 6.4929 6.9746 3.0981 8.1758 11.9101 10.8105 10.8832 1.4293
1.6972 0.0456 5.9016 -5.6837 -0.9011 -1.9716 3.2370 -8.4920 -4.4997 3.4510 -0.2179 -5.2498 0.2451 3.0118 4.9530 -0.7102 -3.8759 5.6106 6.6020 11.1171 3.3376 6.5919 10.0233 11.0393 8.3475 8.0808 11.1235 12.5218 15.6663 8.9013
0.5046 0.7186 -0.6941 -6.6453 -1.3534 -4.4828 2.9507 -4.4350 -4.8221 2.5057 -1.6117 -4.8490 2.6157 2.8067 4.0644 0.1632 -2.1212 6.5340 7.3578 10.6409 3.8025 7.1967 10.6616 11.6937 9.3371 6.6210 8.3153 9.5209 13.1438 11.2844
1.5576 -2.9265 -10.9098 -3.4955 -0.0943 -2.8364 1.9768 -3.4488 -2.8258 2.5250 -1.5347 -8.0726 3.1285 2.7083 3.2059 3.7538 -0.8962 5.7710 6.1458 9.3344 2.0046 6.1843 9.8428 10.1181 6.1914 5.3150 8.7835 6.9905 6.9331 5.6093
-3.2626 -4.2417 -18.3583 -1.0338 -0.7315 -2.6563 1.2443 -2.6005 0.0903 2.3631 -2.4362 -7.2636 3.1156 2.9254 2.8070 4.4708 0.4389 5.0765 5.7345 9.0318 1.1704 5.9637 9.7474 9.6753 5.5350 2.4456 8.8794 6.9499 3.7744 1.6313
-12.2183 -3.5070 -18.3826 0.7497 -2.9456 -4.6749 -0.2863 -0.0106 0.4308 1.6237 -2.6316 -8.9466 3.0130 2.6192 2.2605 -1.5643 -0.6929 4.0078 5.2936 8.1530 2.2902 5.2562 9.2633 9.0620 6.0088 -1.1762 6.7529 7.1127 2.8774 3.0236
-15.7282 -3.2842 -13.0995 2.2007 -3.2350 -4.0659 -2.5522 -0.5396 -1.9446 1.5309 -0.7381 -16.7077 1.3732 2.2728 1.8869 -5.1761 -4.3475 2.5136 4.0697 6.4956 1.2732 2.6950 7.4498 6.4778 2.5804 -1.7847 5.4104 5.4641 0.9275 2.3404
-11.9525 -0.5603 -4.6003 0.5053 -1.3564 -0.5614 -2.2953 -4.3655 -3.1539 2.2324 0.9051 -16.3977 -0.5868 2.2549 2.4882 1.1133 -5.4977 2.3894 3.8453 6.8713 -1.8149 0.9153 6.0098 4.6747 -0.8333 -0.9771 3.0126 1.7715 -1.3983 -1.9279
-6.0121 4.1314 5.2263 -4.4468 -0.1576 1.6074 -0.3489 -7.2769 -2.0436 2.6033 0.9424 -3.4541 -0.2055 1.7705 3.7118 9.3595 -1.8067 4.0307 5.0014 9.5630 -2.4729 1.7993 6.3545 5.8426 0.7635 -3.6618 -1.5391 -0.9644 -1.6840 -3.2540
0.5636 2.7516 4.8031 -7.6318 -0.3179 1.5324 -1.0023 -6.7120 -1.9296 2.5182 1.3179 5.5388 1.6270 1.2063 4.5774 9.7637 1.9247 4.9542 5.3990 11.0458 -2.0110 3.0786 7.2294 7.1209 2.6402 -8.3489 -2.0578 0.8437 0.7380 -2.3978
5.9389 -5.0703 -11.7748 -5.4343 -0.0406 1.9498 -3.3230 -2.4207 -3.6497 2.6236 2.5718 0.8747 1.8797 1.7338 4.4602 4.6221 0.8909 3.4802 3.9977 9.0600 -4.2023 2.5570 6.2561 5.2402 -0.0119 -9.9555 1.2602 3.3311 2.7969 -4.3234
0.3075 -7.8923 -28.0637 0.2946 0.9921 3.0236 -4.4804 2.7546 -4.1815 2.6054 2.1666 -7.6054 0.8437 2.3030 3.1768 -0.4918 -2.2250 1.0108 1.8825 4.8417 -6.2082 0.9631 3.0117 1.1778 -3.6986 -8.9500 -0.7237 -0.4705 0.2666 -6.4318
-17.3517 -1.1660 -25.6803 5.5821 1.6579 2.1432 -4.3299 4.7383 -3.0721 1.7828 -0.8080 -9.8972 0.8204 0.9136 1.1078 -5.0920 -3.0947 -0.8670 -0.2274 0.7140 -5.3234 -0.4171 -0.5005 -2.2444 -5.2000 -8.7252 -7.3015 -7.3809 -5.7284 -6.2873
-26.7151 5.3384 -9.1624 7.8318 2.2393 0.1325 -1.6367 3.0417 -2.1759 0.7487 -3.6951 -7.1497 1.0977 -1.7384 -0.8575 -8.0871 -3.2026 -2.1901 -2.5057 -1.9757 -4.5377 -1.0270 -2.4153 -4.1176 -6.3323 -8.7679 -8.0971 -8.8619 -9.8394 -7.7775
-14.1442 3.7493 2.7781 6.3848 3.3215 0.6801 2.5132 0.2535 -0.7715 0.6806 -3.8979 -3.6428 0.0602 -3.2407 -1.7985 -7.6049 -3.8976 -2.7673 -4.3610 -2.9625 -5.0425 -0.9468 -2.8507 -5.2107 -7.9956 -8.6109 -4.1276 -6.4191 -10.2646 -11.1447
5.4311 -1.0311 4.1612 2.0889 3.6273 3.0021 3.0061 -1.9310 1.5072 1.1921 -2.0607 -1.0213 -0.8137 -2.9542 -1.4601 -5.7496 -2.3089 -1.8242 -4.7666 -2.2537 -5.0433 -1.1808 -2.9334 -5.7265 -8.4121 -10.8756 -5.8927 -7.2784 -9.5707 -11.6728
12.5381 -1.0159 3.0184 -3.0842 1.9735 2.7317 0.5222 -2.4564 1.7481 0.8951 -0.9148 0.6238 0.1592 -1.8239 -0.5637 -3.5946 1.3371 0.1931 -3.8296 0.0793 -4.3647 -1.3465 -2.7758 -4.8101 -6.8066 -12.6065 -10.9060 -9.5365 -9.2223 -9.0559
7.3622 2.7418 0.6910 -6.0664 -0.3305 -0.2952 0.1182 -0.9690 -0.3575 0.2381 -1.2041 1.8704 1.7196 -0.4599 0.3712 0.6123 2.6868 1.7760 -2.3736 2.9191 -2.6332 0.6528 -1.3320 -2.4409 -4.5481 -7.1676 -7.2257 -6.4192 -7.8258 -6.6381
0.7733 4.8306 -1.3089 -5.4494 -1.1875 -2.5937 0.7783 -1.3878 -1.1058 0.6525 -1.1436 2.5232 1.9378 0.6384 1.7128 4.5037 0.9525 2.6854 -0.6177 4.6476 0.1042 3.8614 1.7186 -0.0114 -2.6650 0.3070 2.4644 0.1019 -3.9692 -4.5726
-0.5614 5.3679 7.4244 -4.7591 -0.8593 -3.1311 -0.3332 -6.6282 -0.3380 1.3824 -0.3585 0.5387 1.0026 0.9576 3.2192 4.4424 -0.5835 4.1502 1.5837 5.2738 0.7047 4.8307 4.8438 1.5761 -0.6705 -0.8548 4.6297 2.7501 0.6083 -1.7264
3.5551 4.9401 17.4388 -6.6447 -0.9595 -2.4272 -1.1385 -9.6916 -1.0170 1.3035 0.0352 -3.8962 0.7526 0.7059 3.8845 2.2762 -0.4900 5.6376 3.4658 5.4598 -1.6866 3.5478 5.8552 2.0281 0.4047 -7.4159 -1.4437 0.3340 1.4675 -0.9518
7.4367 0.2484 5.7966 -6.7722 -1.0124 0.4298 -1.0564 -4.2647 -1.9968 1.7227 0.9215 -5.9896 1.6328 0.1444 3.8005 0.5702 -0.6297 4.5058 3.5931 4.6691 -3.6683 1.9531 4.1927 0.8616 -1.5720 -10.1326 -6.0668 -3.6245 -2.9992 -5.3179
4.0193 -5.6748 -14.7727 -2.6728 0.1889 4.4056 -3.4294 1.6273 -1.1163 3.3147 3.3902 -3.7150 1.7334 -0.6175 3.8313 -1.1066 -2.1245 1.2062 2.2288 3.5342 -4.5591 -0.2180 1.9618 -0.7624 -4.2654 -9.9422 -7.1537 -6.8366 -7.9799 -11.0353
-4.3297 -4.8016 -15.0697 0.0038 1.1727 4.9288 -6.3442 -0.0550 -0.4944 3.9358 4.3206 -1.3096 0.7952 -0.6380 3.7402 -2.9442 -2.8679 0.0691 1.6645 4.1022 -5.9713 -1.9457 1.8595 -0.3845 -3.4853 -10.0094 -7.2687 -7.1743 -7.7166 -11.6273
-9.3472 0.9130 -5.4953 -1.1730 0.2558 0.6789 -3.6661 -2.3203 -1.3170 2.5502 0.5797 -1.3195 0.8611 0.5274 2.9123 -4.1673 -1.8908 1.7805 2.5558 5.5766 -5.9629 -0.3668 3.6362 1.6443 -0.9274 -8.1496 -4.5871 -3.4816 -3.0839 -7.7492
-12.5393 3.3138 -10.9303 -0.7548 -0.9772 -2.7597 1.1317 1.2576 -1.2215 1.3666 -3.0074 -2.4929 1.0762 1.3672 2.3095 -3.0908 -2.3374 1.7120 2.8107 5.7782 -2.7639 2.5740 4.4915 2.6344 -0.2739 -5.0134 0.3501 0.7094 0.4375 -4.9695
-18.9147 1.8262 -22.4106 3.2125 -0.5160 -0.9314 -0.6775 4.5719 0.3264 1.9275 -0.3363 -5.3091 -0.7228 0.7524 2.8609 0.3499 -4.7336 -1.3598 1.5668 5.4159 0.4447 2.3437 3.3555 2.1436 -0.3488 -4.4498 2.2229 1.3017 0.3497 -4.7128
-20.5625 -0.3022 -20.8509 5.9387 0.7116 2.9296 -4.6954 3.2788 1.3357 2.6566 3.6745 -8.6741 -2.1731 -0.3635 3.0650 1.3606 -4.5181 -3.0275 0.5793 5.4217 0.5022 0.2895 2.0626 1.8412 0.7316 -6.3360 0.8035 -0.2452 -1.2949 -4.9790
-9.4872 -2.3925 -9.4051 4.1908 0.9066 3.9478 -1.4718 0.5863 0.7441 2.1250 2.0005 -6.9258 -0.9041 -0.7977 1.9525 -0.8911 -1.3957 -1.2743 1.1016 5.4143 -1.6383 0.1223 2.3102 2.5306 2.4259 -8.0266 0.3727 -0.5049 -1.2755 -4.6359
4.6734 -2.0688 3.9158 -0.6227 0.2520 2.3004 4.4578 -3.0179 -1.0687 1.2463 -1.0758 -2.3814 -0.0315 -0.3515 1.3172 1.0905 -0.7768 1.4145 2.3511 6.2632 -4.0047 0.7131 3.6290 3.7777 4.3109 -7.3561 0.7320 -0.1501 1.3499 -3.0336
11.1028 1.3362 15.2645 -5.3090 0.0937 0.7256 5.1595 -7.5399 -2.3605 0.7660 -0.5577 -5.5725 -1.6780 0.4844 1.5662 7.6465 -3.0881 3.1462 2.8350 7.5111 -5.4418 0.5129 4.2079 4.3294 4.5921 -4.3960 -0.6502 -1.7316 3.2209 -1.9465
12.2709 0.7010 9.2275 -6.4128 0.8053 0.8973 3.0004 -6.4334 -1.0453 0.2863 -0.2557 -12.7601 -2.4366 0.5222 0.9289 8.8452 -3.4574 3.2028 1.9735 6.3717 -5.2324 1.1446 3.0955 3.1551 1.2950 -4.8337 -3.8594 -5.2659 0.8037 -4.6750
7.3477 -6.2455 -18.9820 -2.1946 1.5603 2.6441 0.1307 3.0175 1.7769 0.1187 -1.4420 -12.6312 -0.2500 -0.9842 -0.2378 2.4515 -2.1443 0.9659 0.5309 3.2715 -4.7581 2.1312 1.4420 1.0409 -2.6329 -11.9386 -7.6821 -8.4243 -3.4221 -8.9207
-6.5646 -9.0611 -34.7714 3.2626 1.5391 3.5227 -5.4732 9.4681 2.2756 0.5697 -0.2783 -11.1859 1.7868 -2.7145 -0.6405 -4.0170 -2.6092 -1.1787 -0.3652 1.0707 -5.6238 1.6118 0.9913 -0.6546 -3.6908 -17.6182 -8.9269 -8.4425 -4.5693 -9.5249
-14.2952 -3.1847 -12.6324 3.0438 0.6978 1.8600 -9.5060 2.9203 -0.3363 0.5705 0.8901 -12.3109 1.5542 -2.9134 -1.2700 -6.8609 -2.1880 0.3214 -0.3266 -0.2095 -6.2247 1.2784 1.5603 -1.8612 -3.4460 -16.4495 -6.7176 -5.9176 -3.4211 -7.3134
-5.4614 2.1929 15.7456 -1.6241 -0.2080 0.2362 -5.7201 -6.6597 -2.6382 -0.1948 -2.2812 -4.4827 1.1007 -2.3795 -2.4945 -7.6673 1.6273 3.2463 -0.0278 -1.1556 -5.9230 1.9889 1.3989 -2.6590 -3.7018 -14.6548 -6.4308 -5.4146 -4.3361 -6.2339
0.5513 2.2332 13.9914 -2.7566 -0.4210 1.0544 1.1256 -5.1360 -2.9036 -0.1860 -5.1497 6.6248 1.4924 -3.0609 -2.0751 -7.1701 3.1918 2.3192 -0.1411 -0.2726 -6.2394 1.4013 0.3291 -2.1523 -3.3209 -12.7097 -7.8238 -6.9390 -7.0541 -6.5331
-8.1873 1.2872 -6.9121 0.0347 -0.1613 1.7739 1.5198 2.3823 -3.2159 1.0157 -2.3603 3.4044 0.8515 -4.6105 0.6061 -4.7004 -0.4044 -1.7567 -0.1902 2.0456 -5.1815 0.1691 -0.1118 -0.3130 -1.9009 -4.4019 -3.5573 -5.2744 -7.4234 -5.8428
-13.6768 0.8130 -22.3279 0.3839 0.2692 0.9548 -3.7767 4.9453 -4.5575 1.7821 2.0194 -7.7497 -1.0691 -5.6147 2.6195 -0.9609 -3.4847 -4.5366 -0.1198 2.5265 -1.9240 0.1229 -0.2571 0.4548 -0.9166 3.3967 2.5516 -2.2330 -5.4810 -3.7494
-7.3380 -0.3918 -24.1660 -1.3720 1.4854 2.5394 -6.2144 3.9040 -5.0713 1.6069 2.9110 -11.5493 -2.3873 -6.4446 2.1609 1.1489 -3.9084 -5.4678 -1.0593 0.4454 -1.7825 -0.9034 -1.8558 -1.5560 -1.6709 -0.2997 -0.0593 -4.3811 -5.3697 -3.3321
-2.3884 -0.1272 -10.2317 -0.5143 3.1300 6.8243 -2.1905 2.0288 -3.9750 1.6106 1.5871 -7.6155 -2.7272 -7.5046 1.1646 0.5490 -4.5551 -5.8700 -2.4783 -1.0540 -5.2929 -3.1949 -4.0292 -3.9611 -3.8035 -8.9665 -7.5106 -8.9372 -7.1060 -6.2169
-1.1356 2.2469 10.0920 1.2969 3.3107 7.7486 4.0616 -1.9766 -2.8507 1.9411 0.4675 -0.4410 -2.7144 -7.3056 1.5074 0.1406 -3.9899 -5.0387 -2.4295 -0.1682 -5.7315 -3.1224 -4.4248 -3.8610 -5.0489 -10.7428 -9.0716 -8.9172 -6.9386 -8.5866
5.6546 1.6489 12.3626 0.1348 1.7207 4.7438 6.8111 -3.3429 -3.0487 1.9989 0.2717 3.4339 -2.0510 -5.3122 2.4061 1.5408 -1.0084 -3.2224 -1.2702 1.6787 -2.7860 -1.1768 -2.9963 -2.0953 -3.5049 -7.7861 -6.0248 -6.0306 -4.9085 -7.2597
12.3491 -3.3800 -8.7894 -2.1637 -0.1284 3.0936 4.9848 2.5166 -4.0295 1.9245 1.0323 -2.5848 -0.5693 -3.4256 2.7169 3.1834 0.0054 -2.3148 -0.6032 3.1458 -1.7854 -0.7270 -0.9842 -0.2778 0.0024 -6.2514 -4.6300 -4.5580 -2.9661 -3.5370
6.2567 -4.5949 -24.0233 -3.1370 -1.6341 2.6703 1.6165 7.9166 -3.9631 1.9530 1.4527 -9.8919 0.9098 -2.5452 2.5870 4.0424 -1.5456 -1.7559 -0.0559 3.7995 -1.5161 -0.4797 1.1145 1.6256 2.9562 -3.5571 -3.3833 -2.6821 -0.2129 1.2686
-4.7471 1.4757 -11.0753 -4.5421 -2.4053 1.1172 -0.8806 4.1312 -2.0677 2.0949 0.9244 -4.8156 1.4013 -1.4983 2.4564 2.7168 -0.3808 0.4420 1.1555 3.0670 1.2960 1.8047 2.7810 2.9674 3.6661 1.5426 0.0039 0.4808 2.4189 4.8465
-3.4513 5.1324 12.6661 -6.1527 -1.6567 0.8056 -0.5003 -2.9640 -0.1323 2.4164 0.8994 7.0755 0.9268 -0.0954 2.7425 -1.7494 3.2684 3.0904 2.5087 2.1932 2.7378 3.5723 3.5610 3.3601 2.9659 1.9771 1.1240 0.8672 1.8908 3.5559
4.2346 2.2567 20.1644 -4.7191 -0.5158 2.0896 3.6601 -2.6688 -0.2398 2.5460 1.8491 10.7874 0.7236 0.7057 3.8591 -4.2081 4.0546 3.5247 3.6529 3.5952 -0.2906 2.6462 3.8394 4.2271 3.1419 -3.6169 -1.5939 -1.3685 0.1968 -0.0004
1.7812 1.0921 9.9791 -1.7340 -0.6900 1.8403 6.4427 3.0138 -1.8454 2.1520 2.7493 5.0286 1.2195 0.8004 5.2242 0.6883 2.1022 1.9486 4.3299 5.8897 -2.3318 1.4352 3.8468 5.2027 4.1179 -6.0019 -1.7165 -0.6165 0.8024 -0.3308
-5.7795 2.7619 -4.0340 -1.4719 -1.4008 1.4418 3.0234 5.0982 -2.7901 1.8125 3.3913 -1.8593 0.9672 0.2159 5.9000 7.6356 0.7616 0.1527 3.8040 5.7175 0.4279 1.6754 3.2958 4.4180 3.7588 -2.4700 2.0262 2.8892 1.7970 0.8214
-5.8414 0.9041 -9.9013 -2.4496 -1.3035 3.5852 -0.8826 2.6182 -2.0303 2.1614 3.8473 -4.5246 -0.3001 -1.1173 6.1007 7.8337 -0.0870 -0.8581 2.7106 4.0168 2.5521 1.8126 2.3241 3.1030 2.1773 -0.4006 1.9001 2.8266 0.6309 -0.3460
-2.4354 -2.2248 -2.4566 -1.1846 -0.9896 5.3359 1.1789 0.1030 -0.1104 2.9259 3.6679 -1.8877 -0.2722 -1.9153 6.2706 2.5377 -0.1694 -0.2341 2.8664 3.5127 0.4606 1.6955 1.7644 3.4546 1.3046 -0.8184 -1.7574 -0.1675 -1.4212 -2.0281
-2.7152 -1.8234 7.9809 -0.3550 -1.6939 3.8092 3.5911 -1.1307 1.5144 3.3945 3.6640 1.1731 1.6961 -1.2227 6.4359 0.1341 1.8425 1.7738 4.3229 4.0555 -0.7807 3.0270 2.6734 4.8104 1.8137 1.9379 1.6114 1.7599 -1.7600 -1.9479
-4.3067 -0.1206 6.9876 -3.1489 -3.1296 1.5224 0.4412 -0.9772 1.4275 3.2016 5.0742 -1.7080 3.1489 -0.4477 6.9235 4.2997 3.5350 2.8895 5.1865 5.1508 1.3968 4.7629 4.7188 5.9300 3.4549 6.2867 11.4794 8.7406 0.9458 -0.6470
-4.7109 0.9250 -1.8101 -4.6573 -3.2680 1.2293 -1.3970 2.3352 0.7756 2.6960 6.1347 -5.8473 3.6668 -0.7424 7.4317 10.2225 3.6703 2.1026 4.5422 7.0086 3.0209 4.7216 5.8087 6.7866 5.8941 6.1813 14.9859 12.2704 5.2424 2.4883
-4.7768 1.7488 -9.5335 0.1663 -1.3608 1.8530 4.0899 8.3869 2.4929 2.6092 4.4488 -2.2595 5.4469 -1.2258 7.0242 11.2894 5.3642 1.1319 3.6556 8.4737 3.1369 4.1488 5.2028 7.2276 8.1737 3.2252 9.7196 10.0128 8.0819 7.7989
-4.6002 2.1020 -15.1764 5.5428 0.2107 1.5312 9.6038 12.1954 5.3018 2.9650 2.0335 5.2401 7.1463 -1.6062 6.0218 7.5702 7.4423 0.7921 3.5135 8.7436 3.8660 4.5764 4.1439 6.7511 9.1395 3.6960 5.2259 7.0076 7.8737 11.3857
-3.2803 3.3845 -10.8216 4.3322 0.1708 1.1602 8.0495 8.8514 4.5513 2.9932 2.6222 6.5341 4.9570 -2.6621 5.2608 5.2638 5.2084 0.0562 2.9289 8.4158 3.9226 3.9895 2.7754 5.1411 8.7147 6.8898 4.2989 4.9914 4.9556 10.2914
0.3481 5.4186 8.1275 0.8743 0.7120 3.3208 3.1159 0.3439 0.7803 2.5112 5.9417 0.6569 0.2162 -3.9173 4.6446 7.6455 0.4758 -0.9665 0.7622 7.2893 1.3978 0.8450 0.4900 2.5171 7.5301 5.4196 0.9829 1.8602 1.1608 7.7135
5.3677 4.7736 22.9877 1.1642 2.6283 7.6181 0.1511 -5.3980 -1.1873 2.0832 8.3418 -5.5544 -2.2737 -4.4737 4.3033 10.7348 -1.9802 -1.4289 -1.8275 4.9272 -1.7973 -2.5295 -1.6737 -0.4589 5.6105 -1.8474 -5.6710 -2.0795 -0.8691 6.5891
7.2795 2.8526 17.5290 2.1093 3.5748 9.2908 0.2350 -3.5709 -0.4576 1.8108 7.2924 -5.3238 -1.5563 -4.5246 4.7298 10.2164 -1.7839 -1.8253 -2.7832 2.5930 -1.8123 -2.9446 -2.0520 -2.2202 3.5586 -5.3306 -7.2467 -3.1210 -0.0340 5.4517
3.0672 4.0699 1.2960 2.0228 2.8383 5.7226 3.0203 3.2055 0.8894 1.4668 4.0437 1.6213 0.2877 -4.0962 5.2329 7.9620 0.1509 -2.7078 -1.7362 1.5599 1.8073 -0.6243 -1.0095 -1.9529 2.8565 -0.0309 -0.0128 -0.1667 1.8091 4.4227
-3.4667 6.2121 -9.6587 4.7803 2.3890 1.4332 5.8053 9.0114 2.3277 1.2802 2.2510 6.4511 1.5663 -3.3710 4.6084 6.9172 2.0617 -3.8131 -0.7726 0.9359 3.3235 0.3229 -1.1005 -1.8713 2.2982 4.4411 5.0170 1.1282 1.2430 4.4607
-4.8579 5.2290 -9.9947 7.3056 2.8008 1.2884 4.6263 9.1344 3.2361 1.4485 3.2669 3.2440 0.7324 -3.7376 3.1744 5.8883 0.4606 -4.9980 -1.6516 -0.3058 -1.1325 -2.5131 -3.3057 -4.0010 -0.4903 0.2295 -0.3522 -2.8100 -2.6121 2.6140
0.1976 3.5913 -3.0363 3.3633 2.6331 3.1768 1.1713 3.6849 2.6716 1.6625 4.0689 -1.1299 -1.6789 -5.1959 2.2869 4.1942 -2.8686 -5.5157 -2.7098 -0.8858 -5.6710 -5.5444 -4.8229 -5.6990 -2.9541 -5.5104 -7.1431 -6.4286 -5.6048 -0.9885
4.5173 3.8294 3.2157 -1.7284 1.5599 3.2030 1.0411 -0.7216 1.7005 1.5671 2.2663 -0.4109 -2.3037 -5.5314 2.0923 2.4071 -2.1146 -4.2515 -1.8456 0.0294 -4.7585 -4.9395 -3.8535 -4.0866 -1.3750 -5.1239 -8.1404 -6.4280 -4.3813 -1.2432
3.6716 2.8697 2.2706 -0.2697 0.6953 2.0238 4.1559 1.8496 1.5547 1.1986 0.2047 0.4729 -0.2617 -4.2846 1.7076 -0.8799 1.6205 -2.2000 -0.4396 0.4246 -2.4341 -2.2748 -2.5854 -1.4650 1.5113 -1.6537 -8.2577 -7.0064 -2.2536 0.5428
-0.0519 0.0755 -4.4582 3.4795 0.7081 1.9062 5.0144 7.3689 2.0475 1.0042 0.4081 -2.9053 1.2518 -3.5531 1.1814 -4.1374 2.3601 -1.6079 -0.1392 -0.8243 -2.1437 -0.3426 -2.1479 -0.8504 1.0661 1.5632 -7.0493 -7.2602 -2.8402 -1.3155
-5.5122 0.1285 -9.0784 3.7173 1.5530 2.9016 2.0654 7.9362 2.8975 1.2602 1.3534 -7.1717 0.6801 -4.2000 1.0970 -3.1231 -0.0146 -2.3870 0.0279 -1.9856 -1.0830 0.7272 -1.0065 -1.5383 -2.1705 4.5133 -0.6437 -2.9781 -4.1287 -4.8241
-9.3097 3.6519 -5.0777 2.7767 2.5970 3.2177 0.5821 4.7262 3.2263 1.6538 1.2684 -7.2004 0.3503 -4.6947 1.4704 1.0401 -0.3599 -2.1931 0.8097 -1.8068 0.8711 1.4986 0.6172 -1.7829 -4.8008 3.5720 2.4650 0.3493 -4.2918 -4.9300
-4.2522 5.8771 5.8566 2.2002 2.6487 1.8151 3.9049 3.2857 2.0618 2.0281 1.3837 0.2594 1.8943 -3.6660 2.4666 4.4944 3.2564 0.0121 1.8279 -0.3766 0.3629 1.9002 1.2679 -0.9066 -4.5817 -2.4267 -3.7020 -2.9517 -4.6503 -2.7390
5.3034 4.9752 14.5098 -0.0989 1.1380 0.2804 6.5792 2.4593 0.9181 2.5424 3.1414 10.7655 3.5136 -1.8563 4.0821 6.7628 6.6248 2.3129 3.1637 2.0608 -1.5450 1.7894 1.4987 0.8431 -1.6271 -5.1565 -7.1546 -5.6849 -4.7915 -1.1582
7.9627 3.2749 14.3629 -3.5740 -1.1162 -0.1827 3.5926 -0.5802 1.4068 2.8443 5.4701 11.1419 3.1765 -0.8626 5.4564 8.5441 5.5102 2.8040 4.6136 4.5804 -0.4095 1.6629 2.5388 2.6835 2.0614 0.7070 0.6413 -0.6688 -2.3020 0.2615
6.7532 2.2978 9.8944 -6.2932 -2.5608 -0.8959 -0.1920 -3.8657 1.5106 2.5536 6.0807 -1.0290 1.4746 -0.7616 6.1648 9.1282 1.7625 2.4881 5.2536 6.1078 3.4152 2.1382 4.1547 4.3810 5.1548 7.2386 8.0449 6.0459 2.3607 3.0251
9.5146 1.1377 6.2571 -7.0028 -2.3963 -2.0238 0.6773 -4.3813 -0.4888 1.9648 4.2991 -11.1515 0.2608 -0.9616 6.2878 7.3257 -0.6316 2.5347 4.6939 6.2308 4.5900 2.4340 5.3352 5.4452 6.9189 6.3689 5.3198 6.8299 5.3367 6.3651
10.2075 -0.8720 -0.9440 -4.6595 -1.7746 -1.9405 3.0514 -0.6920 -2.1720 1.4617 2.1583 -11.2759 0.8163 -1.9054 5.7227 4.9149 -0.7708 1.8895 3.7858 5.2587 2.4220 2.4165 5.8793 4.9776 6.0967 2.3042 2.8762 5.6604 4.9483 7.1136
2.8149 -1.8189 -9.7907 -1.4884 -1.8964 -0.1289 1.6021 4.7082 -1.9989 1.3256 2.6853 -5.3064 2.6953 -3.6177 5.2250 5.5175 1.3676 0.3642 3.6511 4.5565 1.3319 3.3014 5.7491 3.7759 3.7506 0.5276 8.2207 7.3782 3.2679 4.3261
-4.1866 0.0015 -5.0309 -0.6966 -1.3727 3.1756 -3.1301 5.0991 -2.0254 1.6144 6.1437 4.1442 3.1812 -5.0413 5.3152 6.9218 4.1988 -0.9350 3.4033 4.3137 0.0346 2.3992 3.2237 2.1172 1.8781 -2.4864 7.9131 5.2698 0.0187 0.8522
-1.2944 2.5349 12.7190 -1.0725 0.8465 6.4295 -4.6022 -0.1992 -2.6318 1.7647 8.3666 8.9522 0.6188 -5.9017 4.6142 5.4457 2.7116 -2.6259 1.3478 2.6620 -5.1675 -3.6050 -2.2824 -1.6776 -0.9733 -8.6970 -5.0376 -5.0173 -6.6773 -2.4953
6.9619 2.8560 17.4915 -0.2605 2.4631 6.4306 1.2491 -1.9962 -1.9250 1.5519 5.8904 -0.0283 -2.3459 -6.7670 2.6354 4.5341 -3.2676 -5.3970 -1.2635 -0.1150 -9.5166 -9.4484 -6.9456 -6.0302 -5.1200 -12.7061 -15.4888 -13.6928 -12.6906 -6.0400
5.8172 1.6631 -0.8088 2.8499 2.1472 3.3571 7.5369 4.5028 -0.1631 1.3965 1.3893 -10.0504 -2.4251 -7.6460 0.9496 4.1215 -6.0347 -7.8094 -2.6171 -2.0009 -8.4198 -8.8903 -7.8426 -7.1408 -6.8918 -12.4260 -15.4733 -14.0099 -12.5869 -6.2405
-9.0061 1.1557 -15.7943 8.6910 1.7552 1.5914 5.8418 11.3735 0.8834 1.1070 -0.1465 -4.9932 -0.5448 -8.2310 0.0354 -1.6172 -2.9039 -8.6881 -3.7723 -3.5503 -6.4543 -5.7538 -7.3028 -6.1873 -6.1767 -11.2149 -13.6160 -11.9925 -9.1223 -3.1813
-17.3821 0.2982 -7.1775 12.1622 1.7274 2.8732 0.2153 9.6982 0.3755 0.5834 2.0666 3.5890 0.0412 -8.7253 -0.5341 -6.5958 -0.5904 -8.3019 -4.8277 -5.1335 -6.6081 -5.3864 -7.1511 -6.4215 -6.7003 -9.8366 -11.8292 -11.0620 -7.6875 -3.9989
-3.8483 -2.2589 7.9323 7.1890 0.6999 4.1757 -1.4703 1.6050 -1.0748 0.7296 4.7627 1.9515 -1.2781 -9.1212 -0.1739 -0.8703 -1.7937 -6.9241 -3.7851 -4.4719 -5.5605 -5.9472 -5.8126 -6.5567 -7.6596 -6.8791 -7.0256 -8.4786 -7.8642 -9.3004
10.9725 -3.1845 7.4988 -1.1131 -1.0927 2.5610 -0.6695 -3.6259 -1.2612 1.4411 4.6989 0.3239 -2.0168 -8.3749 0.9749 6.9011 -1.4695 -4.9364 -1.4089 -1.5273 -2.6301 -4.7781 -3.3339 -4.3585 -5.4588 -3.0649 -4.1595 -5.7757 -6.8841 -10.6465
5.1763 -0.5128 -4.3780 -4.1071 -2.7060 -0.9538 -1.4532 -1.0584 0.7031 1.3065 2.0674 4.3036 -0.9387 -6.2623 1.5764 3.8320 1.1324 -3.4843 -0.3221 0.2219 -0.2714 -2.7726 -1.8083 -1.6016 -1.7633 0.4485 -4.5199 -5.0943 -4.7423 -5.7250
-6.8360 1.1287 -13.3090 -3.0382 -3.5680 -2.2089 -2.8159 4.6855 2.1917 0.4410 0.1891 1.9772 0.1533 -4.9258 1.5614 -4.4747 1.5957 -3.2417 -0.5417 -0.5958 0.9034 -0.9026 -1.3830 -0.7427 -0.8868 3.3923 -1.8314 -3.2550 -2.8455 -0.9738
-6.2283 -0.2138 -11.6098 -2.2982 -2.8263 0.5979 -3.0126 4.9124 1.0082 0.4407 0.8823 -5.9050 -0.1114 -5.7153 1.9449 -6.0407 0.5614 -3.2069 -0.6912 -0.9592 1.5541 0.7540 -0.7883 -0.8646 -1.4333 4.6970 2.8634 0.8235 -0.7043 0.8915
2.1809 0.5820 1.2335 -2.2500 -0.9348 3.3699 -1.2648 -1.8152 -1.7788 1.4818 2.1215 -6.1617 -0.7765 -6.6153 2.5944 -0.1349 1.2275 -2.1535 -0.5523 1.4760 3.1999 1.5952 0.3268 -0.0215 0.8960 4.8612 3.5692 3.4945 3.1966 3.4819
8.8869 4.5309 12.8730 -2.3365 0.0969 1.6795 3.0362 -6.5470 -3.8588 2.0709 1.5962 -0.1010 -0.5126 -5.6894 2.4328 7.1029 2.4350 -0.7248 -0.5299 4.0637 6.6974 1.5967 1.4727 1.3218 4.4662 7.0551 2.0092 3.7491 6.8484 7.7207
9.1625 5.8174 7.8468 -0.8540 -0.2379 -2.3259 6.3227 -2.2644 -3.3532 1.4685 0.5520 3.9666 0.9431 -3.9880 1.6061 10.9366 3.4313 -0.3376 -0.8829 3.6126 9.0064 2.0706 2.0900 1.9624 5.1163 10.2468 2.5985 4.0356 6.7130 10.1940
0.9747 3.7531 -5.4156 2.2818 -0.5162 -3.7072 3.4757 5.4678 -0.4012 0.5945 1.9184 6.3131 2.4750 -2.9342 1.7087 9.6810 5.3152 -0.4778 -1.1992 2.0009 7.7470 3.5462 2.6737 2.5743 4.3014 10.2784 4.7829 5.6951 5.2079 10.3465
-7.0987 3.7255 -5.1989 2.1122 -0.3730 -3.1113 -2.6515 6.6555 1.9653 0.1036 4.4593 6.2422 2.4284 -2.4345 2.8693 5.9680 5.7194 0.3965 -0.7058 1.9001 5.9948 4.7560 4.3525 3.6863 4.5192 9.5050 7.3715 8.1777 7.0123 10.4797
-4.3405 5.4095 6.6669 -2.0634 -0.7910 -4.1092 -4.2263 0.7977 1.3325 -0.5873 3.6885 0.5187 0.7963 -2.6278 2.9546 4.3826 2.8490 1.5448 -0.1393 1.7371 6.1161 4.3802 5.8887 3.6525 3.6763 10.8068 9.0387 8.9495 9.3684 9.5297
4.7473 3.7598 12.2542 -3.9082 -1.5775 -4.8888 -0.7896 -4.2038 -0.9195 -1.2032 0.4359 -5.6396 -0.6407 -3.7910 1.5680 5.0964 0.2609 0.9917 -1.0036 0.2653 5.8963 2.5732 4.7632 1.7954 1.0489 8.9064 6.4536 5.7346 7.0904 5.7250
6.8681 -0.4940 6.0820 -2.0163 -1.8715 -2.4856 0.7573 -3.0046 -1.7551 -0.7308 -0.4848 -2.7271 -0.5316 -4.8706 0.6757 3.8886 0.7605 -1.0070 -2.8635 -0.9315 4.1068 0.8511 1.7576 0.2060 -0.3935 2.1988 1.2605 1.4145 2.0605 2.2643
-0.9341 -3.6138 -6.9918 -0.1467 -1.8776 0.2020 -2.6339 2.0877 -0.4250 -0.2529 0.0813 7.8099 0.6822 -5.2847 0.1988 -1.2249 2.4281 -3.0711 -4.4663 -2.3868 2.1433 0.0855 -0.5949 -0.4830 -0.7641 -2.1638 -0.1276 0.3855 -1.8173 1.5218
-6.5012 -5.4486 -14.2710 1.3384 -1.3189 1.4115 -5.6432 4.7565 0.6630 -0.9944 -0.8225 11.0548 1.5110 -5.8548 -0.9119 -6.5022 2.9474 -4.4487 -5.6293 -5.2914 0.3744 -0.8121 -1.9560 -2.1087 -2.6824 -2.3957 2.3145 1.3354 -4.5880 -0.2126
-0.9851 -5.0191 -3.4467 2.2668 0.3051 3.4907 -3.3476 2.5626 -0.6656 -1.2399 -0.7159 0.2297 1.3088 -6.2832 -0.8966 -5.8940 2.5395 -4.0959 -5.8148 -6.0803 -1.8271 -2.2533 -2.4460 -3.8139 -4.1555 -2.4681 3.0148 1.1357 -5.3527 -3.4989
5.2706 -1.0554 7.3016 0.5308 1.1343 3.8257 -0.1961 -0.1196 -3.1699 -0.0563 1.5628 -9.4215 0.5959 -5.5482 1.1476 0.5513 1.9830 -2.4781 -4.2884 -1.8306 -3.3246 -2.4568 -1.3846 -2.3974 -1.0172 -1.1498 1.4662 1.0416 -1.3872 -1.4348
0.8536 1.5932 -6.5824 -1.3912 -0.0377 -1.0513 -1.9332 0.7049 -4.7225 0.2975 1.9447 -6.5082 -0.1246 -4.5745 2.4104 3.9151 1.0822 -2.4485 -2.2730 2.9239 -1.4190 -0.9855 0.2263 1.3640 4.4551 2.9839 1.6305 2.9232 4.9189 6.5333
-6.4533 -0.2790 -22.4391 0.3587 -0.6424 -4.7384 -4.4591 2.8438 -6.1993 -0.9802 0.2061 -1.3259 -0.7882 -5.1026 1.5418 0.2739 -0.0851 -4.6071 -1.6365 2.8263 2.8171 -0.3307 0.2831 3.0720 5.7415 4.8565 3.0790 4.4799 6.9209 10.3943
-5.3480 -1.4407 -9.2091 2.5261 0.6849 -1.3649 -3.4583 1.5472 -8.6863 -1.6032 1.2665 -0.9612 -1.8611 -7.0280 0.8561 -0.5133 -0.9442 -6.1442 -2.0293 0.1713 3.9111 -1.8334 -1.0655 1.6080 2.9327 1.8879 1.5929 2.9412 3.4358 6.5229
1.2594 0.4019 13.4495 0.8934 1.6118 2.6231 -3.0309 -4.3505 -9.6554 -0.5141 5.1115 0.5158 -3.3412 -8.2957 1.5936 6.3720 -1.1923 -5.4658 -1.5436 0.2201 2.3918 -2.9505 -1.3737 0.7183 2.3170 0.0316 -0.4554 1.2118 1.2443 2.8163
4.9092 1.0766 17.1409 -1.2519 1.1245 0.6398 -3.4820 -9.7240 -7.3427 0.5761 5.7732 1.8102 -3.7340 -7.2488 2.1325 10.0035 -0.4767 -3.8281 0.2848 2.5982 4.7610 -1.2973 0.5082 2.8257 4.9838 4.0808 4.1706 4.1996 4.8771 3.5662
3.0616 0.4918 9.0331 -0.0791 0.3362 -3.3051 0.7927 -7.2821 -4.4798 0.2415 1.7053 -2.2512 -2.4235 -4.9600 1.3181 5.3244 0.5767 -3.0394 1.6564 3.4830 8.7778 0.8207 2.4767 5.3487 6.4745 9.0160 11.1966 8.8347 9.1213 5.6016
-1.3416 0.8885 -0.8942 2.4783 -0.5888 -4.4555 6.6386 2.7819 -2.9540 -0.7844 -1.5952 -5.2916 -0.7976 -3.5962 -0.0038 1.3131 0.4925 -3.5163 1.1988 2.4382 6.8570 0.2521 2.4871 5.3759 6.2462 8.6901 9.7507 8.5134 7.9758 7.9921
-4.7320 0.1662 -13.6270 4.5033 -1.2459 -3.9200 5.7859 10.9307 -1.2096 -1.2586 -0.9319 -1.1720 0.4816 -3.3593 -0.8952 1.5264 0.0533 -4.1521 -0.2440 1.1223 2.0798 -1.4970 1.5539 3.5578 6.1893 6.4535 4.2726 5.6392 4.4497 10.0599
-6.2856 -2.0542 -18.0074 6.4900 -0.5975 -2.3120 0.4660 10.4865 0.8341 -1.2249 0.7074 4.8953 1.6095 -3.4989 -1.3608 0.7672 1.1374 -3.8585 -1.5724 -0.6866 1.5412 -1.6517 0.9298 1.2312 4.5061 6.7187 3.9988 4.7421 2.5922 7.0766
-6.1221 -2.2626 -6.8404 7.0173 0.2268 0.4576 -1.5131 5.9612 1.1408 -1.2292 0.9031 8.3519 2.1741 -3.6941 -1.1805 -1.4335 3.0948 -2.5165 -2.4219 -2.5362 3.3693 -0.5119 0.3698 -0.6520 1.2705 6.7320 3.7306 2.8571 0.7174 1.1378
-1.9611 -0.9618 2.6224 4.0056 -0.5690 0.9057 0.1350 3.7730 -0.5526 -1.2916 0.7636 10.3220 2.4023 -3.2579 0.1666 -0.5856 4.5697 -0.5884 -1.8248 -1.7161 4.3544 1.1931 0.8500 0.0655 1.3588 6.1839 1.9478 0.8883 -0.1478 1.4237
6.7979 -1.0380 0.6617 -0.0816 -1.6572 -2.0737 2.2020 2.7820 -2.6471 -1.3221 0.7826 9.8360 3.0892 -2.2824 1.8896 4.5554 5.8694 1.0929 0.3575 1.6955 6.7437 3.5202 3.4435 3.1924 4.7840 8.8940 7.4868 5.1042 3.6887 6.5923
13.2529 -0.3526 4.4691 -0.9589 -0.9195 -3.0916 3.9609 -0.2533 -3.8377 -1.0243 0.9113 6.0302 3.7223 -2.0283 2.5805 9.7989 7.2648 2.1115 1.9804 3.7832 10.3995 4.9260 5.7178 4.6618 6.0024 11.5343 14.2206 10.7466 8.4575 8.1373
10.2547 2.7520 18.0800 -0.6403 0.1364 0.3356 1.5127 -3.6990 -4.0458 0.1485 3.2677 2.0742 3.2586 -2.1142 2.6345 10.3296 7.8497 2.8883 1.9047 2.9140 10.8826 4.0411 4.8427 3.0957 4.4859 8.8211 9.2513 8.4615 8.0215 7.2976
2.3349 3.1668 17.0710 -3.6613 -0.8198 2.9324 -7.6132 -4.2654 -4.1004 1.6253 7.5699 0.7142 1.7064 -1.2080 3.1103 6.5151 6.4564 3.0043 1.4199 1.0083 7.8786 2.4013 2.3314 1.6403 3.5192 5.7649 0.5915 2.4802 4.3235 7.5958
-1.2162 -1.4444 -1.3409 -6.1327 -2.3633 1.0187 -13.6464 -3.4850 -4.1759 1.9091 8.2695 2.7056 -0.2662 -0.3417 3.3475 1.9926 3.1082 1.4912 1.2107 -0.4708 6.6698 1.8898 1.4644 2.1018 3.2804 8.7125 1.2950 1.7310 2.5726 6.2674
-1.6598 -4.5551 -8.3588 -2.3020 -2.4949 -1.9707 -8.2778 -5.1858 -3.3076 0.8620 3.4362 4.5200 -1.5468 -0.8926 2.7415 -0.4807 0.0024 -0.3468 1.1271 -0.6172 9.6667 2.3772 2.8204 3.6759 4.0264 13.9807 7.6699 5.9979 4.2469 5.4039
-4.7916 -2.0797 1.1815 3.2124 -2.2409 -2.1031 0.0576 -6.7209 -1.1494 -0.1503 -0.8160 0.3448 -0.6265 -1.5343 2.3409 1.1059 0.2044 -0.0646 1.6089 1.1783 12.6005 3.6321 4.8741 5.4975 6.8631 16.8102 13.4877 11.7862 8.4980 9.8712
-8.0080 1.7438 5.7496 3.7840 -2.6640 -0.9544 1.6719 -3.4025 0.9116 -0.3721 -0.7063 -2.9616 2.6446 -0.9042 2.5480 4.6680 4.8528 2.5147 2.6045 3.3284 12.7793 6.7062 6.6978 6.8255 9.6110 18.6723 18.9382 16.9549 13.1462 14.9278
-7.7646 3.0826 0.3901 0.8747 -3.5375 -2.5103 -0.7749 1.5694 1.4141 -0.3316 -0.2300 5.5812 6.4344 0.3427 2.3128 3.6305 11.4867 6.0136 3.7454 4.2247 14.1930 11.9180 8.4456 7.7381 10.6871 19.5541 20.5754 18.1551 15.1878 15.2974
-6.5053 2.1595 -8.3623 -2.1011 -4.9939 -6.1315 -2.5233 5.5596 1.2790 -0.6364 -1.7211 14.5895 9.2425 1.6594 1.4978 -1.6511 15.6086 9.1738 5.2077 4.4905 17.5367 16.5741 10.0896 8.9716 11.5801 16.6902 15.5882 15.0419 14.2650 15.1712
-3.9937 0.2181 -16.1570 -3.6872 -5.8219 -6.5596 -2.7210 11.0440 2.3651 -0.8134 -1.0694 10.4962 10.8105 2.8160 1.6640 -1.8764 15.4326 10.7613 6.6195 4.9873 16.4740 17.3429 11.3768 9.8120 12.0964 12.8531 11.5741 13.0710 13.1221 17.3164
1.3240 -0.3321 -10.0563 -2.0824 -3.9117 -2.4484 -0.5290 12.5719 4.0652 0.0159 2.9570 6.4996 10.7083 2.9933 3.6585 4.9676 13.5681 10.8783 7.5983 6.2474 11.3539 15.3007 12.6638 9.8246 11.8411 13.5091 14.7929 15.4818 13.9255 17.9618
4.5085 1.3765 9.8054 2.2612 -0.8857 0.8319 3.6465 4.5530 4.9578 1.0008 4.4071 11.6999 8.9971 2.3222 5.4561 9.4031 12.6551 10.8932 8.4008 8.1461 10.2376 14.4257 13.7724 10.4052 12.9559 16.5008 18.8164 18.5663 16.4377 16.6678
3.0684 1.6828 17.2003 5.5905 -0.3612 -0.0258 6.8681 -1.8972 5.1211 0.5042 0.8991 11.8530 7.3112 1.7166 4.7018 6.9228 12.3455 10.4964 8.2432 8.4630 13.3006 15.1128 13.5047 11.2169 14.7170 16.5079 17.9278 18.3911 18.3111 16.4474
1.7865 -1.0431 4.5799 5.3559 -1.9358 -1.7272 6.1736 1.4598 3.7950 -0.3808 -1.0316 4.1708 6.4552 1.2121 3.0475 3.9323 11.0324 8.7409 6.7354 6.5964 14.4877 14.5325 12.3397 10.6827 14.1764 16.4633 16.9776 16.3065 17.0838 16.2774
2.0404 -2.2077 -3.5235 2.2776 -2.6210 -1.4149 1.7670 3.7231 0.7148 0.4884 2.4979 1.4844 5.4346 0.8990 3.7813 5.9709 8.4164 7.1035 5.9028 6.3948 13.9800 12.1272 12.3249 10.3331 13.6744 19.9763 18.6594 15.6938 14.3981 15.1739
2.2198 1.2588 4.8182 -0.9876 -1.7497 -0.5807 -0.1874 -0.6311 -0.5229 2.0479 6.1026 3.4871 4.2588 1.1799 5.9741 11.9542 6.3805 6.7785 6.4333 9.4419 13.9268 9.7381 12.8417 11.7445 16.1241 20.3736 18.3086 16.8493 13.9838 15.9440
3.4917 5.4729 15.7705 -1.8927 -0.7216 -0.6129 4.7958 -2.1606 1.7047 2.2683 5.4264 3.7611 3.8637 1.4328 6.3443 17.2507 6.5391 6.2866 6.1915 11.2684 12.5655 8.5618 11.4056 12.6051 17.3467 14.3351 15.4078 17.1431 14.5245 17.5789
4.3700 5.1851 15.4962 -0.7438 -0.6969 -0.9874 8.5435 1.1478 2.8540 1.6555 3.7337 5.6458 3.9819 0.9387 4.9934 16.5016 7.8277 5.0578 4.6030 9.0895 10.5574 8.7302 8.5573 11.0716 14.1561 10.8140 13.4207 14.7586 12.1157 15.5903
2.3364 0.6605 3.9049 0.1257 -1.4750 -0.9660 2.3414 2.6711 0.6645 1.1843 4.4664 10.3837 4.0804 0.1366 4.0185 9.7285 8.7155 4.2324 2.8466 5.8504 10.1877 8.7625 6.3580 8.5089 10.7263 12.3365 10.3634 10.2040 7.7312 11.5362
1.2341 -3.3824 -6.2830 0.1172 -1.4959 0.1777 -5.8937 1.8829 -1.3457 0.9268 5.9642 10.9959 3.8575 0.1034 3.6791 3.8830 8.7943 3.6635 1.3315 4.1180 8.9821 6.4289 4.8467 6.5667 10.1199 11.2063 5.1781 6.3294 5.8797 10.0882
4.1828 -3.8101 -3.8108 -0.6649 -0.2292 1.8766 -5.6261 1.0402 -1.7102 1.3439 5.9461 4.9087 2.8613 1.5298 3.6865 2.3016 7.5363 3.1685 0.9501 3.0510 6.0784 3.4190 4.2070 5.8649 9.9323 8.6419 4.7261 6.6296 7.9415 10.1647
5.2206 -1.2347 3.1689 -1.8252 0.7581 1.7204 -0.7189 1.6287 -1.4398 2.0217 4.4675 -0.1731 1.9816 3.1829 3.8778 0.7664 5.1692 3.1629 1.8865 1.3309 5.9300 3.3114 4.6642 5.3701 7.8588 10.3603 9.5601 8.8815 9.3116 8.2470
-2.2015 1.6395 -1.3222 0.9108 0.8179 -0.7773 2.5163 6.4886 0.7079 1.1403 1.4608 2.0881 2.3499 2.6876 2.7556 -2.9897 3.0362 1.7834 1.2622 -1.3631 7.7747 3.7142 3.4389 2.8245 4.3434 10.7244 7.9321 5.6869 5.1104 4.5170
-12.8402 1.3747 -14.5986 8.9096 1.0772 -2.0220 3.4563 12.0572 4.0311 -0.7824 -1.4519 5.7838 2.9852 0.5314 0.4749 -4.6892 1.9695 -1.6938 -1.9299 -3.7139 6.2805 0.7305 -0.5872 -0.9553 1.1076 4.4991 -2.5076 -2.5402 -1.6111 0.9652
-14.6510 -2.0506 -18.0802 12.4032 1.5231 1.2162 -0.8418 9.6136 4.2227 -0.6429 1.0269 3.4765 2.7387 -0.1202 0.5288 -0.1707 2.4013 -2.7918 -3.7667 -2.8052 2.9903 -2.1515 -2.4257 -1.8577 0.3246 -0.7959 -7.3164 -5.3811 -3.2735 -0.4781
-5.7904 -3.0514 -2.9564 4.5286 0.9278 5.7565 -8.5920 0.0223 0.8942 1.3497 7.8352 0.3708 1.6684 1.3469 3.4359 7.4940 3.7534 0.8400 -2.0882 1.8512 1.5542 -0.9912 1.1424 1.3699 3.3298 1.2426 -0.1602 0.8919 1.1538 1.6687
4.0714 1.4352 18.7927 -5.2865 -0.5190 4.4137 -7.5570 -7.6815 -1.8391 1.2183 8.2629 3.8570 0.0574 2.4507 4.7397 11.5079 4.1319 4.6416 0.3607 6.2019 0.4670 1.5578 5.6634 5.5515 8.2503 5.9787 7.6751 7.4100 5.6405 5.5042
9.0179 6.3621 29.0676 -6.9118 -1.2152 -2.9613 4.0233 -9.1720 -1.9427 -1.3899 0.3436 8.4386 -0.9255 2.0523 3.0153 10.6519 3.2131 5.2504 1.5151 6.7738 0.6633 3.3735 6.8128 7.8389 11.0139 9.2549 8.7555 8.0770 6.7195 8.1411
11.2175 6.2210 22.4114 -3.2813 -0.1218 -7.3236 11.8991 -5.0201 0.2150 -2.4016 -4.0484 4.9162 -0.3682 0.7912 1.7774 8.0096 1.8696 3.8450 1.5604 4.4082 4.7231 4.7637 5.8153 7.7634 10.2825 13.4585 8.1259 7.0186 6.2919 10.4411
12.1984 1.6567 7.6339 0.8557 2.1849 -3.6386 10.8352 2.9218 3.9080 -0.7566 -0.2571 -2.9911 0.3881 -0.9164 2.4270 4.6273 0.1136 0.9912 0.2434 1.6884 7.5848 3.5009 4.4709 6.0844 8.8032 17.2702 8.9168 7.8570 6.2571 12.7719
9.8646 -2.9566 -3.9429 5.2447 3.8380 2.5297 8.4304 9.3644 6.8597 0.7542 4.0230 -4.3555 0.3726 -1.8334 3.5079 2.3640 -0.6108 -2.1401 -1.3434 0.9989 5.0489 -0.0905 3.2021 5.0260 9.3147 15.2129 8.2545 8.7256 7.2673 12.9212
3.6803 -3.7037 -8.0152 7.3021 3.6100 5.1225 7.0554 9.8458 7.0470 1.0171 4.6765 0.7386 0.3149 -0.9025 4.4592 4.1288 1.3549 -2.5573 -0.8491 3.0695 3.1132 -0.4925 3.0574 6.2341 11.0136 9.6134 6.6626 8.8098 9.5467 11.7076
-2.3646 -0.6295 -7.3432 4.8726 2.3088 4.5798 4.4008 6.9329 5.4485 0.9039 3.8957 4.6382 0.0442 -0.1219 4.7076 6.6877 3.7434 -1.1603 0.6958 4.7678 5.5363 2.8616 3.6421 7.2193 10.8371 7.3925 7.6680 9.1501 10.4016 11.3560
-4.5189 2.3599 -5.4165 1.1040 1.3689 3.5168 0.8954 4.1563 3.7345 0.8201 3.2908 7.3507 -0.8408 -1.1945 3.9255 5.0774 3.9032 -1.2419 0.7352 3.4985 7.2118 4.0953 2.9514 5.2497 8.2624 7.9267 9.4277 8.4258 6.8072 10.3323
-2.9448 2.6867 -1.3325 -0.8701 1.3522 3.4991 -2.1889 0.8098 2.3827 1.1548 3.8532 8.8571 -1.4422 -2.1967 3.4795 2.0580 2.7019 -2.0296 -0.2293 1.7513 6.1655 1.7285 1.2929 2.4914 5.9014 6.6716 7.4649 5.7346 1.5690 7.1401
1.5037 1.1862 7.2863 -0.7617 1.9780 4.4855 -2.3411 -2.3190 1.8962 1.9585 5.3757 3.2219 -1.4781 -1.7647 3.4565 1.3131 1.6096 -1.4218 -0.9272 1.8800 5.7488 0.1853 0.9309 2.1361 5.7037 4.4529 4.6559 4.5645 0.5167 4.9425
5.8118 -0.0498 15.5027 0.7019 2.2878 3.8399 0.8851 -2.6607 2.8016 2.0511 5.8044 -4.7693 -1.4488 -1.0797 2.6821 1.1058 1.1613 -0.0589 -0.9228 3.2352 6.7923 1.6456 2.8317 4.4130 8.6335 5.3964 7.2610 7.7586 4.6053 7.4867
3.9294 1.0816 14.2335 1.9646 1.8223 0.5145 2.5297 -1.7108 4.9121 0.9653 5.0089 -5.0390 -1.4702 -0.6013 2.3000 2.7921 1.3652 0.8813 0.6261 5.9008 8.4284 3.6757 5.8049 7.9880 13.8332 10.4087 12.4586 11.9979 9.3142 13.1173
-0.6291 4.2967 7.7854 2.4887 1.7920 -1.6629 2.9633 -2.1775 6.9209 0.0503 4.2468 -2.0583 -2.0919 -0.2541 3.2642 9.5237 1.1458 0.8930 2.8501 9.0180 9.7566 3.8516 7.4796 10.6311 17.0454 15.7569 13.5942 13.5782 11.4826 17.7046
3.8899 5.9444 10.0896 3.1151 3.0280 -0.7468 8.1057 -3.2319 6.8239 0.2259 2.8967 -0.3753 -3.1381 -0.8473 3.4653 14.8218 0.8510 0.0607 3.4739 9.3314 9.9320 3.5087 7.1958 10.7527 16.5506 16.6285 13.4296 15.0060 13.3022 20.7456
13.0102 4.0376 17.6279 3.5887 3.8202 -0.3356 13.2830 -3.2932 4.6356 0.6640 0.6767 5.8443 -2.6892 -2.0918 1.9014 10.6776 2.7395 -0.2673 2.6699 6.8376 11.3200 5.4983 7.1890 9.6737 15.4055 12.4838 16.8271 18.6338 16.7177 21.6650
