Fp1 Fp2 F7 F3 Fz F4 F8 FC5 FC1 FC2 FC6 T7 C3 Cz C4 T8 CP5 CP1 CP2 CP6 P7 P3 Pz P4 P8 PO9 O1 Oz O2 PO10
6.7351 2.6686 0.0762 -3.0416 1.8881 3.3663 -2.3381 2.7253 -0.8883 1.9033 -0.5361 2.6954 0.0802 -8.7387 -1.2570 -5.5517 -3.9502 0.0229 -6.7592 -2.5208 -1.8478 -5.8179 -6.7873 -7.6634 -10.6219 -5.4873 -8.4508 -11.9066 -13.2456 -16.3101
9.5699 4.3627 3.2737 -1.2436 3.4465 2.8963 4.9291 5.3665 0.0872 -0.8388 -1.6501 5.5902 0.4952 -9.6893 -7.8985 -0.1141 -3.9291 1.4137 -7.7926 -0.5060 1.5096 -4.3567 -6.5474 -7.1420 -9.1094 0.1880 -4.5210 -8.1684 -10.8501 -13.1998
6.7714 3.3183 3.0752 -0.9115 4.1674 1.2895 5.5043 4.9342 0.8756 -3.4530 -9.5310 5.0139 -0.8112 -10.3968 -9.6232 -1.5377 -4.1539 0.3365 -7.5708 -0.4056 2.9912 -3.4527 -5.2687 -4.8585 -5.2438 4.3112 -0.1837 -0.7986 -3.4693 -4.3402
2.8905 0.7643 -0.5854 -3.6127 3.6677 1.7086 -2.5536 1.3174 0.2933 -3.1552 -8.2436 1.2657 -3.4983 -10.5995 -6.5024 -7.5965 -5.6075 -2.6217 -7.6212 -4.9707 1.1247 -4.4966 -5.7784 -5.3037 -5.1160 1.2895 3.1338 1.8490 -0.2437 -3.3826
2.9616 -0.4046 -2.1244 -6.2891 3.0480 4.0370 -8.7017 -2.3081 -1.4277 -1.6263 -2.6279 -2.2641 -5.8453 -10.4059 -5.2853 -11.5707 -7.6293 -5.6253 -8.8506 -8.6331 -2.7212 -6.9585 -8.2218 -7.5564 -8.4147 -6.5055 1.0408 -3.0754 -4.3695 -11.1175
5.2329 -0.1412 -0.1565 -5.8202 2.7030 3.2518 -5.6247 -2.0743 -2.3744 -1.1316 -8.3561 -4.2920 -5.7935 -8.9479 -6.2747 -11.3094 -7.9027 -6.7892 -9.2765 -7.1524 -5.1693 -8.0312 -8.8035 -7.3989 -9.3430 -10.2163 -4.4316 -7.4364 -7.9389 -13.2179
5.8598 0.1865 1.6981 -3.8659 2.3233 -0.2984 1.3048 2.6732 -1.4865 -1.3557 -16.9642 -5.0109 -2.8178 -5.8388 -5.6987 -8.1968 -5.5057 -4.8103 -7.4876 -4.1531 -3.8114 -5.4082 -5.7247 -4.1818 -6.0558 -6.6982 -2.4271 -3.3395 -4.0087 -5.8577
5.0765 0.3995 2.1234 -3.3114 2.1493 -0.7184 3.5500 6.6271 0.0439 -0.8497 -12.0814 -4.1920 0.1374 -3.1814 -3.5019 -4.6465 -2.7345 -1.4200 -5.1640 -3.0500 -0.5104 -1.4160 -1.8341 -0.6765 -2.8077 -1.7784 7.0034 3.8371 2.2745 -1.2532
5.2902 0.9603 2.7651 -3.4441 2.2361 1.4244 2.5339 5.0429 0.9006 -0.1307 -1.0054 -1.1712 0.6123 -2.3715 -3.2355 -1.4826 -1.5527 0.6947 -4.1283 -2.2374 1.8539 0.4024 -0.0139 1.2336 -1.8015 0.6231 11.4265 5.4714 3.7276 -3.2483
6.0323 1.4053 3.0599 -2.8435 1.6055 1.0713 2.7684 0.3104 0.9302 -0.7319 0.7967 2.8382 0.3748 -2.3778 -4.7990 0.2129 -1.4916 1.3283 -3.9026 -1.1964 2.4267 0.1335 -0.6503 1.3589 -1.3323 0.5219 6.9095 2.9643 2.0647 -3.8178
5.5460 0.8986 1.8877 -3.0240 -0.0012 -0.3619 0.9864 -2.4661 -0.1492 -1.0433 -3.5081 3.7540 0.0619 -3.0614 -1.4448 -2.4191 -2.8594 0.4565 -3.4373 -1.4421 0.1377 -1.6132 -3.2136 0.0100 -1.9784 -3.1432 -2.1173 -0.7293 -0.4865 -2.9806
4.7136 0.2432 1.2980 -4.9775 -1.0660 0.4900 -3.6161 -1.5995 -2.2704 0.6260 -4.2084 0.9576 -2.5805 -4.5549 5.9158 -6.6045 -6.0879 -2.0305 -3.4299 -1.2743 -3.9997 -4.7407 -6.1513 -1.4349 -3.8951 -7.6030 -12.6911 -5.8169 -4.4698 -4.7233
4.5467 0.8007 2.7674 -6.4435 -0.7761 1.4788 -3.6947 0.9287 -3.8415 1.1499 -3.5267 -0.5324 -5.7731 -4.6740 5.4840 -5.3748 -8.3982 -3.8367 -4.7532 1.5775 -5.4125 -6.4722 -7.2397 -1.0578 -3.1153 -7.5538 -17.8003 -7.5366 -5.5665 -4.6647
3.7556 1.6477 4.2021 -6.1067 -0.5265 0.9833 0.5981 1.7461 -3.9217 -1.1752 -4.4129 0.9983 -5.6258 -2.7192 -1.7325 -0.8617 -7.7789 -3.6128 -5.9354 3.9862 -3.6661 -5.1587 -6.4524 0.2681 -0.0528 -5.6066 -12.3034 -3.6906 -2.0918 -2.2285
1.9428 1.2599 3.4204 -5.4710 -1.2223 0.6463 1.1066 -0.0574 -3.5794 -2.6265 -2.5609 2.5972 -3.6544 -1.5548 -3.2228 -0.4682 -6.3587 -2.9732 -5.8213 1.4447 -2.8237 -3.5056 -5.5830 -0.7442 -0.7776 -5.9861 -5.2904 -2.7751 -1.9278 -4.2050
0.4966 0.5444 1.5978 -4.7562 -1.6545 -0.0397 -0.0768 -0.9752 -3.3444 -2.0198 0.9315 3.7125 -2.8055 -2.1115 -1.4327 -2.0628 -5.4743 -2.3715 -5.6967 -3.7946 -2.8449 -3.0055 -4.8959 -3.8079 -5.1740 -5.2863 -4.5451 -7.5996 -7.2668 -9.0836
-0.5837 0.5610 1.3882 -3.4453 -1.3406 -2.2252 3.6358 1.0073 -2.6998 -2.2100 -0.7529 4.0203 -2.3321 -1.9590 -4.3655 -0.6533 -4.1138 -1.3477 -5.7001 -5.8420 -1.9627 -2.5443 -3.8008 -4.5948 -6.7406 -2.5536 -3.6395 -8.8908 -9.0355 -9.0819
-1.9077 0.3471 1.8603 -3.6127 -1.4736 -3.7858 5.8823 1.9559 -2.2395 -3.1445 -6.0893 1.1652 -1.8561 -0.6578 -6.3946 -0.2938 -3.0574 -1.4780 -4.8624 -4.5891 -2.5356 -2.8804 -3.8015 -2.4614 -4.1146 -3.1530 -0.3954 -4.6812 -4.5898 -4.5438
-1.8781 -0.2171 -0.0361 -5.5929 -1.7033 -2.6981 0.3995 -0.0916 -2.6775 -2.9486 -6.6392 -2.7826 -2.4910 -0.2855 -4.0952 -3.7578 -3.8302 -3.3917 -4.5052 -3.7343 -5.5705 -4.9763 -6.5159 -1.5687 -2.4749 -7.4514 -3.2767 -3.9153 -2.4715 -2.9496
0.3592 0.1555 -2.3282 -5.8568 -0.7375 -0.5207 -3.9982 -0.7348 -3.3480 -2.0451 -1.5317 -2.5927 -3.6047 -1.1935 -2.9771 -5.2591 -5.4375 -4.6110 -5.3472 -3.2331 -7.3840 -6.6522 -9.8955 -2.9866 -4.4658 -10.1541 -11.0773 -7.8474 -5.8918 -6.9023
1.8033 0.7921 -1.1754 -4.1481 0.0764 -0.2151 -1.2961 0.5501 -3.8001 -1.3387 1.0758 1.1423 -3.9440 -2.0964 -2.9716 -3.1446 -6.1706 -3.4883 -5.6556 -2.2717 -5.6831 -5.6842 -10.6135 -3.7713 -6.4589 -8.4371 -12.0189 -8.1281 -7.5618 -9.4380
0.0584 -0.0805 0.4431 -4.1669 -0.8844 -2.3749 0.3346 -1.0371 -4.2687 -1.0963 -2.7143 2.6431 -3.7136 -2.6712 -2.1929 -3.3357 -5.9231 -1.8250 -5.4753 -3.5345 -2.5695 -3.2089 -8.9436 -3.7551 -5.7646 -4.0732 -5.1286 -3.8612 -4.5828 -5.9247
-2.2106 -1.5771 -1.4193 -5.9216 -1.9624 -4.7181 -2.5976 -3.5169 -4.5391 -1.8205 -6.5211 -0.0717 -3.7310 -2.9704 -3.7297 -6.1530 -5.4025 -1.8549 -6.1971 -7.4591 -0.8342 -1.8116 -7.5809 -5.0433 -5.4891 -1.1740 -0.7541 -3.1067 -3.8566 -3.4561
-1.1376 -1.5418 -3.0012 -5.8019 -1.5097 -5.2000 -2.1154 -1.7770 -4.2290 -3.4334 -3.5820 -2.4277 -3.8853 -2.3695 -7.9597 -4.8561 -4.8051 -2.4432 -7.1039 -9.4391 -0.3545 -1.6613 -7.2764 -6.1760 -7.2309 -0.1549 -1.5792 -6.2234 -7.0493 -6.4533
2.1752 -0.6474 -1.1872 -3.4154 -0.8893 -4.3293 2.4340 -0.0026 -3.5021 -4.7807 2.4670 -1.2341 -2.9920 -0.9619 -10.8779 0.2545 -3.8220 -1.3097 -6.9483 -6.9427 0.4049 -0.8504 -6.9558 -4.2420 -7.2520 2.8262 -1.0907 -4.6337 -6.1762 -7.2162
3.2556 -1.0106 -0.3579 -2.2153 -1.3452 -3.3815 1.6618 -2.5396 -3.1882 -4.4852 2.5166 0.1472 -1.2371 -0.2190 -8.5713 0.2122 -2.8958 0.1346 -5.6841 -3.1014 0.5048 0.3313 -6.7687 -0.8256 -4.8995 5.1413 1.5573 1.4367 -0.4305 -3.4389
1.4393 -1.7450 -2.3240 -3.5419 -1.7217 -2.1465 -4.0054 -3.5031 -3.7012 -2.7161 -3.8467 -0.6015 -0.6411 -0.8443 -2.4210 -6.2026 -3.2115 -0.3610 -4.2909 -1.7944 -1.6035 -0.4191 -7.8792 -0.0264 -4.4108 0.0721 -0.2867 1.7779 0.6704 -3.4400
0.2569 -0.6359 -2.5142 -4.5906 -0.9270 -0.8074 -3.6735 0.4910 -3.6915 -1.9754 -8.7902 0.0209 -1.2087 -1.3078 -0.9411 -8.9151 -4.4267 -0.9105 -4.1931 -2.8046 -3.8303 -2.4274 -9.3533 -1.9069 -5.7715 -7.7661 -7.8612 -4.3031 -4.1034 -6.7587
0.7197 1.0529 -0.4296 -3.6207 0.1809 -0.9872 3.0412 3.8424 -2.1985 -3.5955 -9.0534 3.4220 -0.9625 -0.2752 -5.5617 -4.0898 -4.4914 0.5440 -4.3189 -2.4402 -3.1776 -2.1592 -8.1895 -2.2558 -4.5305 -9.1433 -11.6202 -5.3884 -4.7368 -5.1543
0.6712 0.7112 -0.0358 -2.6568 0.4216 -2.1652 5.5077 3.8014 -1.2550 -5.0224 -5.9912 5.6743 -0.2777 0.9133 -5.1737 0.7315 -2.9142 2.1641 -2.0388 0.9818 -0.2171 1.2503 -3.7912 0.8798 -0.9466 -6.4928 -3.5674 1.9334 1.2615 -1.9793
-0.6231 -1.0072 -1.5089 -3.2890 -0.2147 -2.2256 0.8992 2.0023 -2.7777 -4.1226 0.5082 4.3723 -1.0745 0.5771 1.9697 1.2605 -1.7879 2.0133 0.8620 4.0374 2.1128 4.3348 0.3713 4.3707 0.7755 -5.5402 8.8112 7.7092 5.3945 -4.7869
-2.8974 -2.1896 -3.8063 -4.4073 -1.2872 -2.3082 -4.5810 -1.7499 -4.9768 -3.0269 5.8876 1.2112 -2.8156 -0.5018 3.1174 0.0147 -2.4255 0.6733 0.2324 3.0652 1.9336 3.9991 1.3361 4.8747 0.4979 -4.6616 11.7649 5.9314 4.1249 -8.1083
-5.4160 -2.6387 -6.9871 -4.8599 -2.2054 -4.1648 -7.0786 -5.6332 -5.3331 -3.7039 2.3622 -1.1963 -3.5659 -1.0597 -3.7114 -2.2169 -3.6388 -0.9938 -2.7798 -0.6423 -0.2196 1.2608 -0.3958 2.4465 -0.0588 -3.4882 4.6123 0.6455 0.9405 -6.1575
-5.2206 -2.4164 -7.6499 -4.6479 -1.9840 -5.3373 -6.7043 -5.7086 -4.3277 -3.6187 -5.0151 -1.5217 -3.4359 -1.3077 -4.4019 -5.1886 -4.3611 -2.9513 -3.5444 -2.9933 -2.9607 -1.4512 -3.1729 -0.5714 -1.9919 -5.4857 -5.0512 -4.6171 -3.1624 -4.7347
-1.7760 -1.4026 -3.9947 -3.6105 -0.5649 -3.9278 -4.4856 -2.7486 -3.2333 -0.9877 -4.3825 -0.5281 -3.3414 -1.3141 4.9102 -5.6141 -4.5962 -4.3555 -1.3686 -2.5372 -5.0570 -2.9790 -5.2607 -1.2411 -3.8896 -8.3458 -12.8135 -7.6293 -6.0334 -5.0535
0.5414 -0.3388 -0.7675 -1.4044 0.7494 -2.6056 -0.4920 0.0334 -1.6505 0.2120 1.0015 0.0896 -2.1506 -0.7329 8.0109 -2.0542 -3.7010 -3.2350 -0.0437 -1.6060 -4.4195 -1.9911 -5.1484 0.6489 -2.4397 -6.3198 -12.3182 -4.5655 -3.1466 -1.6427
0.4708 0.2520 -0.5701 1.1166 1.2570 -2.9457 4.9390 1.3898 -0.0016 -2.7804 0.8255 -0.2648 0.6460 -0.3185 -3.6190 2.0939 -1.9136 -0.0805 -2.1147 -1.8459 -1.1927 1.0534 -4.4177 1.3704 -1.0070 -1.4632 -2.0739 0.9561 0.9432 0.2211
1.0648 0.5420 -0.9080 2.3052 1.3954 -2.9882 7.5334 0.8952 -0.3885 -5.6131 -2.7674 -1.2382 2.0507 -0.8592 -13.5474 2.6255 -1.6404 1.1883 -5.2186 -2.3585 0.0269 2.0328 -5.7821 -0.6787 -3.6204 -0.3681 3.9477 -0.0072 -1.6282 -5.1353
1.4631 0.3536 -0.8399 1.7731 1.3088 -2.2248 4.4779 -0.2898 -2.7602 -4.6431 -3.2536 -2.1274 0.1275 -1.7450 -8.3732 -0.3471 -3.2879 -0.5173 -5.7980 -3.1833 -2.1311 -0.1692 -7.4118 -2.4142 -5.8369 -2.1960 -1.8928 -5.3634 -6.2731 -8.0195
-0.8510 -0.4968 -0.9114 0.5367 0.6670 -2.0543 0.2505 -1.0848 -4.3375 -2.7363 -1.7975 -1.9930 -2.2265 -2.1086 0.5578 -2.9682 -4.0429 -1.5752 -4.4449 -4.7392 -2.8615 -1.2395 -6.1413 -2.0939 -4.2133 -1.7308 -7.2601 -6.0839 -5.3814 -3.2296
-2.9263 -1.3835 -0.8384 -0.2952 -0.3573 -2.3175 -1.1958 -3.1830 -3.7605 -2.5835 -0.7911 -0.9782 -2.0004 -1.7988 1.1344 -3.2898 -3.0206 -0.7447 -3.5828 -5.0267 -0.9182 0.1524 -3.9302 -1.0163 -2.6614 0.0083 -5.0352 -2.6951 -2.0773 -0.4982
-1.7900 -1.3520 -0.6200 -0.1434 -0.9224 -2.2232 -0.4445 -5.2420 -2.4011 -2.9806 0.8095 -0.3307 -0.3673 -1.1656 -1.8350 -1.9408 -2.0215 -0.3043 -2.9390 -3.2356 -0.0179 0.8929 -3.7568 0.3651 -2.5969 -0.4032 -2.5202 -0.7369 -0.7243 -2.4005
-0.4613 -0.3842 -0.1834 0.5926 -0.5548 -2.1079 2.2488 -2.8103 -1.7584 -3.2762 1.2696 -0.3603 0.2265 -0.8926 -3.2642 0.0674 -1.5494 -0.5009 -1.6988 -1.9635 -0.2384 0.3952 -4.0597 1.6447 -1.7952 -1.4785 -2.2018 -0.6508 -0.3952 -2.5169
-1.0818 0.1392 0.1487 1.0138 0.1173 -1.9905 4.2625 1.3987 -2.0557 -3.4507 -3.2090 -0.7145 -0.6661 -1.2821 -3.3586 -0.5745 -1.4362 -0.8879 -0.7419 -2.3855 -0.0369 -0.2719 -3.4414 0.9197 -2.4483 -1.9972 -1.7263 -2.4917 -2.3755 -3.3418
-0.6936 -0.5357 -0.4148 1.0430 0.5135 -1.3480 1.4976 0.7893 -3.0176 -2.1265 -8.9447 -1.6255 -2.2679 -1.7182 0.7472 -5.1349 -2.3575 -2.5429 -0.2192 -2.7459 -1.3379 -1.8916 -3.8180 -1.3157 -5.6374 -3.9374 -3.4338 -6.3060 -6.7462 -7.5935
1.1507 -1.0094 -0.8323 1.1858 1.0989 -0.6545 -2.1472 -2.8950 -4.1053 -0.4248 -8.0678 -2.7944 -3.4703 -1.6069 6.1026 -7.0263 -3.3448 -4.0343 0.0852 -2.5236 -3.7103 -3.6175 -4.9919 -1.8699 -5.4284 -6.1035 -5.8930 -6.8937 -6.7422 -6.8796
0.8062 -0.3494 -0.5622 1.4193 2.0597 -0.3772 -1.4647 -4.0529 -4.3131 -1.2569 -0.5747 -3.2683 -3.3273 -1.0397 3.4471 -2.4202 -2.6827 -2.9295 -0.9463 -2.8934 -3.0618 -2.9234 -4.4598 -0.6854 -0.5550 -4.4076 -2.5760 -1.8882 -0.8013 0.0320
-0.9608 0.3231 -1.7315 1.5812 2.5928 0.2096 -0.7053 -2.8278 -3.4055 -2.7526 8.2794 -2.6884 -2.3075 -0.2645 -3.9373 2.5707 -1.4219 -0.9359 -2.4890 -3.0964 0.4362 -0.3342 -2.8824 -0.0071 2.0741 0.9096 5.4897 2.9086 3.3056 2.0779
-0.1476 0.6200 -3.6491 2.2366 2.3189 0.7776 -1.8517 -0.8094 -2.5088 -1.6493 13.3582 -1.3124 -1.2080 0.4117 -4.9634 4.4478 -0.8900 -0.1446 -1.3727 -0.5413 2.9271 2.1023 -1.9236 1.3769 1.8654 4.8001 10.6112 4.1925 3.3252 -1.1416
1.5627 1.1603 -2.5462 3.5231 1.5556 -0.5153 1.0613 2.5901 -2.1042 -0.1250 8.1411 -0.1277 0.5563 0.6167 -0.8512 5.6672 0.3259 0.7706 1.9711 3.9707 3.6707 4.1796 -0.4412 4.7633 4.0296 4.4446 9.7706 4.6320 4.0108 0.5343
0.3187 1.0935 0.0405 4.1899 0.4940 -3.1730 6.2477 5.3188 -1.2169 -0.5660 -4.2290 -0.1002 3.0505 0.6231 0.3313 5.1035 2.8982 2.5251 3.5130 5.2092 4.2793 5.8221 1.7073 6.7708 6.3186 3.5143 7.0301 5.6067 5.7905 6.3788
-1.2595 -0.0354 -0.7317 3.7600 -0.3965 -3.9238 5.4337 4.5872 0.2580 -0.6835 -7.2545 -0.5962 4.4140 0.9342 -1.8121 2.2437 4.5204 3.7811 2.4168 2.2635 4.8238 6.0337 2.0726 5.5065 4.4156 5.7264 6.1811 6.3267 6.1608 7.7214
0.7606 -0.4309 -2.6382 3.1710 -0.6137 -1.9946 1.3522 2.7603 0.7541 0.7578 2.4299 -0.3616 3.2896 1.0041 -3.0071 2.0228 3.6577 4.1635 1.2785 1.0415 4.6427 4.6619 0.3151 3.7115 1.4703 7.8307 5.3013 5.8195 4.8128 3.9732
2.8918 0.0807 -1.0416 2.2008 -0.9730 -1.0707 1.6291 2.3394 -0.2832 1.3321 6.9197 0.7185 0.7679 0.1286 -2.2956 4.0721 1.8337 4.0018 0.8714 2.4909 4.1157 2.8104 -1.1773 2.0878 0.1182 5.9696 2.5240 3.5134 2.0037 0.3514
0.1877 -0.8507 -0.0985 0.4677 -2.4641 -3.6128 2.7363 0.2302 -1.2064 -0.1839 -1.5017 1.0758 -0.6268 -0.8732 -1.8002 1.8902 0.7839 2.7615 0.4337 1.4715 3.2894 1.3825 -1.5398 -0.4393 -1.7926 1.8417 0.5815 0.9863 -0.9506 -1.6851
-3.9528 -2.7936 -4.1973 -0.2073 -3.9241 -6.2139 -0.7273 -4.4526 -0.8739 -1.9893 -8.3343 -1.3115 0.5858 -0.8207 -2.5720 -3.1306 0.3370 0.7747 0.2324 -1.0671 1.3701 0.3038 -1.9129 -1.6981 -3.5761 -2.1778 -0.0729 0.2368 -1.5839 -3.2465
-4.0095 -2.8191 -6.8490 0.8149 -3.6377 -4.2438 -4.1924 -5.7457 -0.4438 -1.8075 -2.3195 -5.0394 2.7600 -0.0698 -2.3044 -3.5095 0.2196 -0.0035 0.2388 -0.3802 -0.6991 -0.5023 -2.3553 -0.1646 -2.4994 -4.5672 -1.8182 1.5457 0.6273 -3.2370
-2.2614 -1.2844 -2.9682 1.1346 -2.4089 0.8962 -4.2218 -1.6627 -1.2155 0.5676 9.7235 -5.9298 2.8508 0.3469 1.8331 0.3002 1.0553 0.8759 0.2308 2.8511 -0.5730 -0.3659 -1.5453 2.2621 0.3104 -3.0521 -2.4639 4.5259 4.0953 -0.9975
-2.0693 -0.5552 1.0471 0.3203 -2.0178 3.5110 -3.8519 2.1072 -2.4519 2.2174 14.4846 -3.6169 1.1486 0.3307 6.1785 2.5506 2.5890 1.9456 0.9939 5.6021 2.1665 1.2864 0.6379 4.2379 2.5558 1.6837 0.9846 7.0084 6.2704 0.9907
-1.2360 -0.4734 0.2853 0.9421 -2.2269 1.3457 -1.9263 3.0836 -2.6758 0.2897 7.2093 -1.2695 0.8434 0.3572 2.7275 2.8136 3.6460 3.1012 1.8146 6.0296 5.8935 3.9223 2.4728 4.9525 3.5000 5.9145 5.5716 6.5398 5.4181 1.4919
0.3210 -0.3204 -0.9229 3.0808 -2.0384 -1.9920 3.5436 3.5752 -2.0503 -3.1694 -3.2908 0.0286 2.3085 0.4424 -5.5994 3.1763 3.9388 4.6343 1.1268 3.7745 8.3650 6.0126 2.7516 3.8255 2.7545 6.9933 8.0752 5.6144 3.8871 1.7647
-0.3208 -0.6964 0.3643 3.8694 -1.6146 -1.8677 5.4933 3.2621 -1.9642 -3.4466 -5.2584 0.1706 2.7789 0.2863 -5.1012 2.3584 3.7030 4.8970 0.7375 2.3947 7.7302 6.3421 2.2077 3.4659 1.9740 4.5262 9.7879 7.5274 5.2267 1.8059
-1.2181 -1.0951 1.1873 2.7906 -1.2386 1.6545 -0.1750 1.6750 -2.4887 -0.3737 0.6865 -1.5650 1.7024 -0.0086 4.7133 0.0421 2.7651 3.4437 2.2828 4.6402 4.7738 5.1803 1.9389 5.5229 3.3641 1.0180 10.3311 9.1667 7.5762 1.2037
0.2876 -0.4847 0.5839 2.0266 -0.8805 3.9623 -3.8559 2.0072 -2.2515 1.5077 5.6014 -3.3114 1.2269 0.0010 8.1586 0.1260 1.6774 2.6209 2.6127 6.6409 2.5417 3.8473 1.9492 6.3223 4.7736 0.0893 6.8913 7.2958 6.9930 1.1315
1.0976 0.1063 0.7964 1.7568 -1.0861 2.3125 0.2905 4.5510 -1.2644 0.2488 5.7734 -2.5141 1.6704 0.3688 1.2987 3.3538 1.7353 3.3009 0.0721 5.0992 2.5565 3.3351 1.9529 4.0076 3.7031 1.7269 1.9846 5.3722 5.0595 2.3740
-0.8902 -0.4851 1.0708 0.7160 -2.0554 -0.9568 3.7941 4.5294 -1.1063 -1.6026 3.1957 -0.5165 1.3516 0.5824 -4.3341 4.8082 2.4810 3.5246 -2.0858 2.6878 3.5312 3.2183 1.8355 1.9489 2.3244 3.2537 0.0162 5.7705 4.8570 4.0826
-2.0958 -1.0295 -0.2071 0.0564 -2.6415 -2.6589 2.2971 0.9318 -1.9511 -2.2827 2.1358 0.2997 0.3620 0.3756 -5.2500 3.7874 1.8506 2.5076 -2.7237 1.1686 3.6308 2.4199 1.1985 1.3061 2.0381 3.9402 -0.7993 4.7206 4.2249 4.3971
-0.5705 -0.4254 -0.5768 0.6730 -2.1319 -2.1590 1.6273 -1.2408 -2.5568 -1.9808 4.9442 0.1390 0.1193 0.2761 -5.0821 4.0873 0.0673 1.9397 -3.2475 0.1755 2.7479 1.5118 0.4934 0.6673 1.1133 3.8391 -2.1838 1.2654 1.3465 1.9364
-0.0820 -0.1384 0.9652 0.7992 -1.7611 -1.0200 2.6686 0.3816 -2.4522 -0.8730 4.2256 -0.5487 0.8413 0.8316 -2.5802 3.8816 -0.1355 2.5498 -2.5959 1.3776 2.1541 2.0343 1.2954 1.0638 0.2421 1.7440 -0.8848 0.6545 0.2388 -0.9165
-3.1502 -1.2925 0.6027 0.0845 -2.7082 -1.5754 1.6377 2.1589 -1.8198 -0.2632 -5.6158 -2.1569 2.3011 1.7465 0.4003 0.1963 1.7340 2.9967 -0.6112 3.6741 2.3671 3.4814 3.3489 2.5563 1.4061 -0.7186 3.7509 4.2707 3.1712 0.2153
-6.3029 -2.3293 -2.2160 -0.6235 -4.0675 -3.4613 -1.0352 0.9584 -1.2504 -0.9878 -10.8655 -3.8391 3.7027 2.3166 -0.3778 -2.1989 3.1381 2.8503 0.2322 3.4448 2.9054 4.1374 4.2453 2.7773 2.8589 0.6163 8.0257 6.6271 5.4949 3.0517
-6.2457 -1.9880 -3.1540 -2.0307 -4.5834 -3.5492 -3.2163 -0.6848 -1.7383 -0.9319 0.2207 -3.7805 3.1279 2.3776 -0.9289 0.9277 3.0362 3.1718 0.2488 3.1170 3.4950 3.9642 3.7411 2.5584 2.6532 4.3285 9.9898 5.7504 4.4943 1.3916
-5.0573 -1.2872 -1.8278 -3.0407 -4.5277 -2.2661 -2.9115 1.0569 -2.6608 0.5634 12.3004 -1.1152 1.1224 2.5247 1.5649 5.6427 3.0628 4.2548 1.3238 5.6690 4.1266 4.2003 4.2866 4.1988 2.8411 5.1878 10.7888 5.9564 4.3080 -1.6692
-5.3286 -1.1837 -2.0030 -1.7911 -4.2087 -3.4425 0.3689 3.9913 -2.1855 0.6209 8.3125 2.3980 0.9983 3.4028 1.9987 7.0014 4.1612 5.6241 2.2981 6.8361 4.9689 5.5227 6.3006 6.0899 5.0669 4.0921 12.4335 8.6445 7.1978 1.3073
-6.0211 -1.5211 -3.9793 -0.7159 -2.9984 -6.1134 1.5771 3.5206 -0.6857 -1.3913 -3.1394 2.4222 3.0006 4.7734 0.3410 4.4687 5.2284 6.7329 2.0052 4.6615 5.9700 7.2784 7.5184 6.3133 7.2142 4.9394 14.9710 11.0785 10.1609 7.3976
-5.7158 -1.9246 -5.3798 -1.3220 -1.0744 -5.3645 -2.6145 1.4797 0.0233 -2.5166 -6.3911 -2.2950 4.0103 5.5748 2.0239 0.4597 4.8791 6.4051 1.3197 3.7674 5.6346 7.4426 6.7728 5.9675 7.2211 5.7011 14.1906 11.6717 10.9141 8.9335
-4.5699 -1.3404 -5.3235 -0.3630 0.3751 -1.2954 -5.5319 2.2597 -0.1005 -1.8346 -0.4048 -5.9517 3.1730 5.0991 4.0519 -0.2802 3.1170 4.3983 -0.1535 5.4552 2.8057 4.7571 4.6964 5.4570 5.6851 3.0982 6.2810 8.4482 8.2956 5.2922
-2.9252 0.8080 -2.7566 2.0091 1.0269 1.1666 -0.7698 4.4964 -0.2109 -1.4564 6.2052 -3.7115 2.3305 3.9041 0.4112 4.5446 1.5876 3.0094 -2.5498 6.7517 0.2446 1.7456 2.8098 4.2841 4.1431 0.4453 -3.2390 1.9760 2.9645 1.0564
-2.1179 2.2165 1.4477 1.7322 1.2796 0.2596 5.5337 5.0053 -0.3351 -1.5478 6.6330 0.2447 2.4705 3.3834 -3.2054 8.6793 1.7287 3.7199 -2.8806 6.6849 1.4642 2.1196 3.1127 3.7836 3.5566 1.8304 -3.1723 0.4879 1.1288 0.3689
-3.9864 0.7618 1.4746 -0.0750 1.0600 -1.0515 3.4955 4.0260 -0.5283 -0.0300 2.7029 -0.4840 3.1739 3.9991 0.3370 5.4241 2.6774 4.4624 -0.3461 5.5874 4.2891 4.6406 4.9359 4.3113 3.6246 3.9814 6.0026 6.7790 5.5044 2.5079
-6.4526 -1.1893 -3.4521 0.5462 0.5547 -0.9213 -3.5091 2.2352 -0.6429 1.9469 1.1242 -4.6447 3.6603 4.3169 4.0349 -0.1551 2.7432 3.6949 0.8212 3.8711 4.3997 5.0346 4.5769 3.8059 3.4239 2.8232 10.2480 9.9189 8.0667 3.0182
-4.7708 -0.4486 -4.8873 2.6956 0.6636 -0.8102 -3.6543 0.4582 -0.8738 0.9747 2.6593 -6.7352 3.2781 3.3670 0.6007 1.0863 2.0033 3.1017 -1.1013 3.0646 2.5591 3.1626 1.6684 2.1994 3.5849 1.3550 3.6011 4.3940 4.2256 2.5873
0.3899 1.8372 -0.7991 3.7448 1.4997 -0.9966 2.8961 1.2957 -1.1162 -1.4869 4.7731 -5.5074 2.3919 2.6989 -3.1932 7.3720 1.5896 3.5079 -2.3204 3.7556 1.2919 1.8134 0.4698 1.6523 5.0803 1.8983 -4.1881 -1.2525 0.3872 4.5915
2.8972 2.7199 0.9001 3.7747 1.8389 -0.0970 5.6962 4.2425 -0.9654 -1.3677 8.2221 -3.4490 2.3471 3.5430 -1.5571 10.6161 2.0799 3.7296 -0.8246 4.5642 0.4601 1.6437 2.6379 2.4509 6.4452 0.7809 -5.3458 -1.3083 0.8634 5.9102
0.7296 1.6755 -1.7195 3.3490 1.0285 0.4829 2.7687 4.5205 -0.7144 0.2967 10.7407 -2.6258 3.4579 4.4039 1.4677 8.9365 3.0253 3.7607 1.0984 4.6222 0.0859 2.0139 4.9550 3.2234 6.0628 -2.4776 -2.8401 1.3484 3.0030 4.1272
-1.6141 0.2272 -3.3945 2.6385 0.2606 -0.8014 -0.5569 1.0087 -0.9753 0.5883 9.0652 -4.1536 4.3087 3.7844 4.7223 5.5770 2.9899 3.7676 1.9878 4.4238 0.1753 2.0668 4.7082 3.1604 4.4082 -3.2925 -1.4275 3.1927 3.8288 2.6698
-1.4089 -0.2512 -3.4503 2.4027 0.6355 -1.6459 -2.5931 -1.7460 -1.3909 0.0667 6.6152 -6.6522 4.0739 2.2682 7.9933 2.7600 1.7180 3.1748 2.0432 4.0310 -0.4054 0.9495 2.7066 2.4087 2.4496 -1.3081 -0.7343 2.7697 2.6505 1.7941
-1.5725 -0.0484 -5.0384 2.8534 1.2426 -1.2849 -3.0616 -0.8047 -1.0654 -0.7293 3.7472 -6.8515 3.4442 0.9372 4.8355 0.8493 1.1278 2.8467 0.7873 2.7568 -0.6895 0.0515 1.1570 2.0184 1.5988 -0.8780 2.2610 2.0991 2.0051 0.2067
-4.0672 -0.2838 -7.2581 3.2315 0.9178 -2.0209 -1.5103 1.9271 -0.3548 -2.0259 -2.8213 -5.0715 2.7199 0.1968 -2.2910 -0.5306 1.6084 3.1536 -1.0197 0.7172 0.4518 0.8129 0.6784 2.2286 2.8892 -3.0905 6.0098 3.6669 4.0792 1.1965
-6.0175 -0.6057 -6.3234 2.7042 0.2152 -2.5977 -0.6353 3.0276 -0.4769 -2.1607 -6.1206 -3.8483 1.6145 0.0874 -2.0257 -1.4567 1.1642 2.7899 -1.1444 -1.4625 1.3769 1.7696 0.0556 1.5607 4.2449 -3.6334 5.9772 4.5460 5.4076 4.8080
-5.7863 -0.2448 -3.3616 1.2452 -0.0451 -0.4964 -2.6664 1.3208 -1.2798 -1.0038 -0.3295 -2.9696 0.4809 0.3957 2.3438 -1.9735 -0.3703 2.3094 -0.2618 -3.2054 1.6346 1.8339 -1.4227 -0.1104 3.1086 -0.4732 3.5420 2.0302 2.9497 4.8523
-5.8934 -0.0095 -3.4859 0.2359 -0.1658 1.4863 -5.2510 -0.4512 -1.6954 -0.9582 4.8708 -2.5713 -0.1633 0.5490 0.3778 -2.5288 -1.1357 2.7151 -0.8577 -3.3354 1.8001 1.3719 -2.7662 -1.0287 0.6452 1.2977 1.2774 -1.2577 -0.5222 0.1499
-7.2793 -0.4285 -5.6979 0.4624 -0.4357 0.5945 -5.2230 0.5847 -1.6496 -2.0483 2.1928 -3.5586 -0.1183 0.0960 -3.1400 -2.8898 -0.5185 2.7771 -1.8403 -2.1481 0.9617 0.5320 -2.3713 -0.8565 -0.2048 -0.4460 -2.1340 -2.5110 -1.6290 -1.7254
-7.7115 -0.7855 -4.8160 0.5941 -0.6695 -0.5234 -3.4684 2.0229 -1.3125 -2.5434 -2.1718 -3.6589 0.7040 -0.6741 -1.7170 -2.4984 0.6744 2.5328 -0.7973 -1.5343 0.3266 0.8014 0.2419 -0.1117 1.8965 0.2502 -2.3203 0.0852 1.2545 3.7095
-6.3477 -0.9526 -2.4139 0.1281 -1.1646 -0.3744 -2.5893 0.6434 -0.5545 -2.6658 -3.0133 -2.3719 1.6971 -1.4466 -0.4458 -1.1896 1.1422 2.9959 0.8287 -0.7083 1.2752 2.7037 2.9519 1.3535 5.3937 3.4308 3.9823 5.6415 6.5654 9.8147
-4.8603 -1.0212 -2.3918 0.2297 -2.1152 -1.0330 -2.2560 -0.6076 -0.2696 -2.8066 -0.9764 -3.1566 1.6340 -2.5032 -0.0835 0.8898 -0.2614 2.3882 0.5991 1.6988 0.3276 2.4978 2.5170 1.9670 5.9695 1.6847 4.4165 6.0472 6.7125 8.3159
-4.9271 -0.5121 -2.5628 0.7240 -2.5132 -1.7919 -1.5138 0.9666 -1.0448 -2.3231 1.6288 -5.2627 0.4634 -3.3965 3.6345 1.8827 -2.5567 -0.0365 -0.8251 3.4061 -3.8860 -1.3662 -0.8184 -0.2833 1.8534 -3.2658 -7.7731 -2.3430 -1.3258 1.5510
-6.5941 -0.0148 -1.5324 0.7044 -1.6796 -0.9737 -1.5574 1.2582 -1.3467 -2.1028 -0.8427 -4.9643 0.0765 -2.8051 5.2411 -0.1126 -2.8572 -0.9310 -1.8420 3.1037 -5.8542 -3.7875 -2.6755 -2.9731 -1.6340 -3.8994 -14.4888 -7.7277 -6.7200 -1.6926
-8.3761 -0.5868 -1.9598 0.6955 -0.7650 -0.3539 -2.1609 -1.3540 -0.5436 -3.2113 -7.5175 -3.5284 1.6938 -0.7221 0.2970 -2.2361 -0.3244 1.1912 -1.9457 2.8001 -2.9395 -1.1669 -0.4836 -2.2514 0.4122 -2.2493 -2.7342 -0.9958 -1.0747 0.7679
-8.3315 -1.0632 -2.3332 1.2961 -0.7556 0.1465 -0.8845 -1.4094 -0.5651 -4.0450 -4.6382 -3.2228 3.4328 1.0926 -3.4641 0.4099 1.9877 3.2042 -1.3329 2.9694 0.0698 2.6832 2.4368 0.1076 4.0444 -3.1288 11.1641 7.7503 6.5355 2.6939
-5.3434 0.2874 0.6143 2.0628 -0.8141 2.4671 2.4041 2.0263 -1.6923 -3.4322 9.2979 -2.3739 3.0558 1.0452 -2.1977 6.2826 1.0920 2.9229 -1.3179 2.7608 -0.3374 2.7815 1.2910 -0.4136 3.2313 -4.0079 9.5458 6.1545 4.6615 -0.2228
-1.0005 2.3868 3.3007 2.3085 -0.1368 4.1113 4.2508 3.8384 -1.8528 -2.6521 15.0284 -0.4817 1.7007 -0.5360 -0.2925 8.2859 -1.6226 1.7393 -2.7377 2.8979 -2.0889 -0.1197 -3.1456 -3.2799 -0.5383 -3.3861 -0.1278 -2.1038 -3.3210 -5.1961
0.5819 3.0552 1.4410 1.7251 0.6851 3.0458 1.8771 3.4639 -1.2085 -2.3140 7.9535 0.3114 1.4224 -1.5592 2.7167 4.6188 -2.8952 1.0318 -3.9369 3.7981 -2.7362 -2.0276 -5.7147 -4.8310 -2.6754 -4.2652 -3.7008 -7.1829 -8.1922 -8.7468
-2.2031 1.9183 -2.2436 1.2438 0.9051 1.6051 -2.2106 2.2232 -1.1751 -2.7806 3.1180 -0.3361 1.6427 -0.9040 6.0866 1.1619 -2.5086 0.4914 -3.7875 4.5281 -2.4175 -1.5550 -4.4031 -4.7105 -2.7963 -5.6343 -1.6416 -6.5032 -7.8904 -10.0635
-5.6265 -0.1651 -4.3005 2.3334 0.4898 -0.0300 -3.0913 -1.4921 -0.6195 -4.9929 0.6936 -1.2746 1.4764 0.2320 3.1744 0.7646 -1.8581 0.3458 -3.5668 4.3266 -1.5154 0.1624 -1.7808 -4.1888 -1.9877 -4.2143 1.1267 -2.1611 -4.3637 -7.6972
-5.8025 -1.6216 -4.6967 4.0453 -0.2204 -2.1325 -0.9644 -4.4938 0.8563 -6.5486 -5.2580 -1.8583 1.2701 0.8936 -2.7429 0.8250 -1.0477 1.1969 -3.6260 3.1722 -0.0371 1.9286 -0.2421 -3.0349 -0.3114 -1.8166 4.0558 1.6890 -0.5917 -3.0863
-3.9389 -0.9556 -3.2145 4.0369 -0.8354 -1.0525 0.1000 -1.5188 0.8854 -4.4794 -3.0538 -1.8981 0.4651 1.4029 -2.4383 1.6351 -0.6164 1.7848 -3.1684 2.2603 0.7072 2.0458 -0.1908 -2.0627 0.6005 -1.2237 2.3771 -0.2324 -1.3388 -2.1828
-3.4318 0.7398 -1.0296 3.1555 -1.0543 2.8271 -0.6522 3.5683 -0.2131 -1.6819 7.5235 -2.1664 -0.5632 1.7959 1.1071 3.8341 -1.1778 1.2998 -2.4702 3.3950 -0.0609 0.1490 -0.5473 -2.3201 -0.0910 -1.1080 -6.9914 -5.6532 -5.5218 -4.3928
-3.8904 1.3773 -0.8226 3.9140 -0.6609 3.4814 -0.0610 4.8849 0.5672 -1.6240 5.8863 -2.1111 0.7346 2.1739 1.2438 4.2063 -1.0328 2.1481 -1.5064 5.8242 0.1624 -0.2639 0.5868 -2.0157 0.3550 0.3214 -13.0155 -5.9944 -5.6917 -2.3471
-2.6080 1.4514 -0.8153 5.0542 0.2708 0.3856 3.7175 4.0274 2.5218 -2.3898 -5.2650 0.6726 3.6294 2.7671 -0.8550 3.6213 0.6670 5.2550 -0.3335 5.4964 3.2327 2.8589 2.8931 -0.7729 2.4021 2.8416 -6.4675 -1.2023 -1.6058 2.9923
-0.5757 1.6926 1.6048 3.5361 1.2478 -1.0272 6.4917 2.6582 2.6713 -1.8960 -4.8103 3.5882 3.9258 2.5680 -2.2725 4.4604 1.5684 6.5194 -0.4697 1.1534 5.4896 5.2437 3.2538 -1.4381 1.8896 4.8245 2.9442 0.6627 -0.5873 3.2419
-0.7163 1.0244 3.1778 0.4823 1.9429 0.3938 2.7936 -0.1801 1.6811 -0.9322 0.5304 1.0731 1.6066 1.1203 0.0319 1.9811 0.6943 3.6593 -1.4919 -1.6659 3.2477 3.2698 0.9168 -3.2584 -1.5185 3.8804 3.7620 -1.7953 -3.3753 -1.5332
-1.9265 0.1184 2.1122 -0.4812 2.2972 1.2022 -2.4594 -1.7452 1.9624 -0.2443 -5.1929 -3.1574 0.8184 0.3541 5.6175 -3.5438 0.3040 1.2334 -1.3856 0.8127 0.4406 0.7293 -0.6869 -2.5485 -2.3252 1.2783 0.9607 -2.7273 -3.9535 -3.1660
-1.3468 1.0534 2.8206 0.9914 2.2079 0.9960 -0.0515 0.0152 2.8687 -0.2892 -9.3278 -1.2282 2.2734 1.5176 5.9912 -2.0583 1.4502 2.9393 -1.2349 3.8294 2.1619 1.7890 0.3701 -0.6370 0.7054 1.8679 2.2426 -0.7298 -1.5702 -0.0720
0.0212 2.6117 5.6893 2.4507 2.0025 2.1596 5.2994 1.5345 2.3740 -0.8055 -1.3481 2.9105 2.8294 3.1249 0.8383 4.7332 2.4082 4.9478 -2.1255 3.6718 4.4433 3.2186 1.5314 -0.8867 2.4409 4.4991 2.5075 -0.2218 -0.9158 1.7972
-0.1622 2.3094 5.2546 2.8806 2.1262 3.9504 3.3164 1.4708 0.9278 -0.0840 3.0176 1.0641 1.6439 3.5554 2.2519 4.3249 2.0672 3.3546 -1.8241 3.6477 1.5333 1.0713 0.6659 -1.4506 1.4745 2.8743 -3.4774 -2.2857 -2.2747 1.1844
-0.4214 1.4638 2.4219 3.1275 2.1920 3.9574 -0.6360 3.0069 0.3398 1.3028 -1.5711 -2.3627 1.0714 2.6691 9.1277 -0.2824 1.5574 1.6524 -0.4716 4.8706 -2.2245 -1.2494 -0.3641 0.1278 1.8956 -1.4436 -7.3571 -2.6152 -1.4405 2.2245
1.0932 2.3060 3.5150 3.7707 1.8312 3.3117 2.9947 5.4032 0.8826 0.3927 -1.6551 -0.0789 2.3269 1.1063 8.3089 2.2205 1.9193 3.5380 -0.9929 4.5181 -0.3062 0.4973 0.4551 1.5231 4.4579 -1.2704 -2.0858 0.3690 1.6727 4.8992
2.2850 3.6816 7.2182 4.6022 1.6619 3.9991 8.3321 5.0191 1.7164 -2.0223 3.3834 3.3274 4.0183 -0.1257 2.2819 7.8698 2.3347 5.8088 -2.3048 3.9683 3.7981 3.3291 1.6580 0.8590 5.7213 2.5000 3.2693 2.4772 2.7860 5.6065
2.0432 4.1707 7.6947 5.3089 2.2118 4.7299 8.0357 3.4061 2.1946 -2.1746 6.5220 2.9990 4.3637 -0.5674 1.7207 9.4355 1.8566 5.3989 -1.5235 5.7115 4.3719 3.0904 1.4468 -0.0498 5.0279 4.3117 0.5016 1.3775 1.0718 4.4431
2.2176 4.3239 5.8769 5.3688 2.9464 4.5509 6.3570 4.1321 1.8905 -0.1237 9.1799 3.5258 3.2440 -0.6568 3.5677 9.8173 1.3726 4.8467 0.4818 6.9825 3.9513 2.0960 1.3280 0.0687 4.8869 5.0862 -1.5057 1.2622 0.8133 4.6146
2.2280 3.8541 5.0140 4.2728 3.1160 4.8653 5.5466 5.9093 1.1705 1.1213 9.9040 5.7645 2.1948 -0.3675 2.5196 9.6267 2.1288 5.7236 2.3591 6.2625 5.7052 3.9029 3.2245 1.3138 6.5408 6.9265 5.5623 6.0655 5.0529 7.1503
0.9037 2.2576 4.1782 2.8767 2.7214 5.2132 3.0659 5.8317 0.9939 0.8377 6.2730 3.7813 2.4242 0.5690 2.6161 6.9954 3.3403 5.7468 4.3422 7.0018 6.3925 6.5600 5.4567 4.3146 8.9518 6.4480 13.6802 12.4886 11.0233 9.5567
0.3609 1.1794 3.0224 2.7393 2.1849 3.9213 1.6467 4.2290 1.4339 0.2245 3.6824 -1.1115 3.6399 1.3050 4.4543 5.6168 3.5697 4.6669 4.9789 9.1709 4.5233 6.9374 5.1704 7.2428 9.8830 3.1126 14.1297 14.0865 12.9788 9.0197
1.4569 1.7399 3.1740 3.8798 1.9899 2.7505 3.3441 3.1809 2.1165 0.1683 3.4844 -2.1256 4.9267 0.9712 3.2394 5.9474 3.5225 4.7214 3.0937 8.1316 3.5705 5.9397 2.6510 6.3681 7.7858 2.0559 9.3207 9.3853 8.8886 6.2452
2.3036 2.4126 4.3233 4.9527 2.5583 3.8815 4.0900 3.5779 2.8098 1.1558 0.3544 0.3526 5.1253 0.0533 1.6404 3.1007 4.3625 5.5447 1.3159 3.6730 3.8508 5.0809 0.4231 2.5583 4.0891 4.0371 3.8768 3.0199 2.9958 4.7427
2.1746 1.9203 5.0447 4.9003 3.4003 5.2247 2.5772 4.7187 2.6891 2.3546 -4.1197 1.5781 3.6284 -0.6476 5.2008 -1.4160 4.9559 5.3526 1.9304 0.4788 3.2050 4.1270 0.4019 0.5903 2.0711 5.2785 2.4143 1.2146 1.2933 5.7834
1.7857 1.3684 5.3474 4.0439 3.5002 4.6035 3.0439 5.9401 1.8738 1.7247 -1.4970 1.2267 2.1462 -1.0145 8.4410 0.1347 4.2951 5.1497 2.9066 1.3102 3.5367 4.1397 2.8917 2.0210 3.2100 5.7383 9.5174 5.9384 4.9589 6.4927
2.0395 2.1785 6.2855 3.5343 3.0290 3.5199 6.9209 6.5779 1.8050 -0.2858 7.6016 1.5939 2.2672 -1.1383 4.0399 8.2740 3.5120 6.1103 2.0932 5.1870 6.0952 5.7715 5.6257 4.4284 5.7557 6.9376 18.0038 10.6284 8.2796 4.4548
2.7472 3.5504 7.3984 3.0582 2.8030 3.5860 8.3481 5.3181 1.8269 -0.2722 11.5423 2.1099 2.0081 -1.0403 -0.9814 12.4778 2.8095 5.8426 0.9219 8.3585 6.6273 5.5736 5.2202 5.0804 6.3425 7.6323 13.9104 6.6048 4.9868 1.3416
2.2338 3.5003 5.9778 1.9781 2.7005 4.2188 3.1732 3.2548 0.4606 2.0875 8.1583 0.4904 -0.1282 -0.9099 1.7357 7.2972 1.1088 2.7186 0.8672 7.1519 2.9858 1.6712 2.2493 2.9224 3.5751 7.2625 0.4641 -2.7381 -2.2038 -0.2665
0.1619 1.4821 1.5467 1.6994 2.0585 3.7445 -2.4133 3.1410 -0.5831 2.6634 4.9035 -2.4874 -1.5286 -0.8714 5.4073 0.9837 -0.3768 -0.1850 1.0493 3.4874 -0.4782 -1.0790 1.1709 0.4335 0.6491 6.3587 -4.6346 -4.4151 -3.6255 0.4153
-2.5185 -1.4963 -1.8409 1.7449 0.5659 1.1996 -3.1156 3.2331 0.0278 0.6490 -0.6679 -4.4165 -0.9759 -0.6750 3.8269 -1.3412 0.2021 -0.5379 1.1582 2.0646 -0.7458 0.9697 3.2513 1.1346 1.4958 3.9968 2.5639 3.9129 3.2350 3.7382
-5.1290 -3.7142 -1.2205 -0.7127 -1.1775 -1.1165 -3.7546 0.0130 0.0670 0.2525 -7.2641 -5.4562 -1.1380 -0.1629 3.1791 -3.3396 1.2541 -0.6144 1.4973 1.7709 -0.5290 3.5317 4.5033 2.9925 4.0825 0.5028 8.0040 9.6921 8.9231 7.2988
-5.3572 -3.5776 0.7517 -3.6248 -1.8294 -0.3008 -6.5577 -4.3480 -1.2839 2.0046 -0.8828 -6.0825 -2.4054 0.2676 5.0763 -3.7061 0.5452 -2.0163 0.4900 -0.8136 -2.4538 1.8920 1.9250 1.0767 3.0372 -2.1011 2.6622 4.8417 5.4650 5.4941
-2.2457 -1.9140 0.0410 -2.6640 -1.1626 1.3032 -6.4755 -5.3850 -1.8097 1.7239 10.4206 -5.2509 -2.1460 0.3249 2.4638 -0.8225 -0.6058 -2.6347 -2.4776 -3.4025 -4.7830 -1.4014 -2.1382 -3.2034 -1.0329 -3.4669 -6.3578 -3.3106 -2.0538 -0.3985
-0.1174 -1.2174 -2.3015 0.0228 -0.4178 0.0257 -3.0753 -3.2745 -0.8475 -0.8983 4.2665 -3.2800 -0.4437 0.4170 -3.4176 -0.3684 -0.1517 -1.0507 -4.5029 -3.3974 -4.4478 -1.4688 -3.0455 -4.6192 -2.4612 -3.2116 -8.3549 -4.9419 -4.0722 -1.3583
-1.7336 -1.6683 -2.4603 0.3159 -0.2446 -1.7759 -1.1985 -1.5891 0.0569 -2.1954 -6.5786 -2.3466 0.2987 0.5758 -4.5917 -2.3396 0.6504 0.4006 -4.0643 -3.6465 -1.8367 0.9178 -0.2086 -3.6943 -0.9361 -0.7767 -3.5243 -2.0402 -1.6183 2.2468
-3.7199 -1.8987 -0.8311 -0.4685 -0.4305 -0.5611 -2.2988 -1.9026 -0.0455 -1.6557 0.1398 -4.2035 -0.3681 -0.0472 -1.5009 -1.3503 -0.2771 -0.8468 -3.5092 -4.6850 -0.3462 1.5033 2.2334 -3.7770 -1.2824 1.0228 0.1060 -1.6057 -1.8398 0.3542
-3.3153 -1.9536 -0.1181 0.1175 -0.9030 1.4341 -3.5182 -1.8925 -0.6265 -1.2786 7.2500 -7.0013 -0.9898 -1.1366 0.0468 0.2221 -1.4253 -2.5105 -3.4945 -1.8253 -0.3565 0.6906 2.6278 -2.8075 -2.4127 0.9276 0.4023 -1.7672 -2.8472 -4.6479
-1.9686 -1.9939 0.1471 1.3067 -1.5085 1.1468 -2.3154 0.2375 -0.4871 -1.0334 -2.3539 -5.6281 -0.3008 -0.8397 -0.1805 -0.6000 0.1156 -0.4054 -1.7644 3.7986 1.5555 2.6237 4.0314 1.3937 1.0745 2.5857 2.2018 2.6871 1.6385 -0.5966
-1.6862 -1.7424 0.5643 2.1182 -2.0370 -0.1264 -0.0402 2.2243 0.6041 -0.3986 -10.7121 -0.3401 1.5614 1.0574 1.0004 -0.7656 3.3179 3.5399 1.2046 4.7783 4.9307 6.3680 6.8580 4.4214 6.3011 5.4419 6.1766 7.8341 7.6192 8.6933
-2.7482 -2.0727 -0.7910 2.4153 -2.5028 -0.5503 -0.7690 2.1695 1.2446 -0.0644 -7.2824 1.2306 2.9175 2.6074 4.7215 -1.0409 4.8781 3.7825 2.9566 1.8663 4.8856 6.9180 7.7710 3.7516 5.9964 3.9909 7.9159 7.7520 7.6976 8.9100
-3.9104 -3.1924 -3.2478 1.1577 -2.7005 -0.2854 -5.1296 1.5694 0.4473 0.3415 -3.6332 -2.8915 2.6209 3.0208 9.5070 -3.5147 4.7329 0.9807 4.0621 2.7641 1.5467 4.7430 7.1108 3.8089 2.6575 -0.5938 6.7959 5.4478 4.8644 1.7669
-3.5341 -3.1670 -2.9442 -1.2745 -2.2134 0.3888 -7.4845 1.4232 -0.5261 1.3165 -1.0534 -5.1663 1.9464 3.2248 10.8709 -3.0828 4.9979 0.3349 5.4016 6.5348 0.3544 4.3792 8.0439 5.7597 2.7683 -1.6960 5.5196 4.7393 4.2059 -1.1687
-1.4394 -1.4382 0.2201 -2.1004 -0.9232 1.1119 -3.8719 1.2811 -0.1412 1.4001 5.0287 -2.4157 2.4506 3.4247 6.4867 2.0106 5.7275 2.3665 4.9629 6.2215 2.2109 5.4419 9.5892 5.0005 3.2237 0.8176 3.7811 2.8647 2.5278 -1.0221
0.3973 -0.3128 1.9669 -1.3281 0.7196 1.0347 0.6961 1.3525 0.7469 0.0994 8.4515 -0.3711 3.1379 2.7426 1.3839 4.6067 5.7674 3.4866 2.2099 2.4095 2.9793 4.6488 9.0188 1.4252 -0.4820 1.6650 1.0981 -0.5227 -1.6023 -4.1235
-0.3589 -0.9187 0.6960 -1.8541 1.6860 -0.0663 0.7574 1.2651 0.8176 -1.0336 6.1425 -1.8902 2.5301 0.9213 -1.1166 2.5442 5.1900 2.7121 -0.4080 -0.3809 1.6225 2.8399 7.4243 -0.3247 -3.0071 0.1408 0.6964 -0.3614 -1.9323 -5.4108
-3.1061 -1.8457 -1.0294 -3.4059 1.3170 -1.1913 -1.4301 -0.2837 0.5605 -1.3090 2.4008 -2.9006 1.2124 -0.9620 -3.5262 0.0063 4.3197 1.4835 -1.6281 -2.5516 0.4546 2.0184 6.3788 0.3197 -0.4954 -0.5694 3.8161 3.4115 2.8451 -0.2567
-4.1149 -2.3500 -1.9878 -3.5976 0.3589 -1.0094 -3.7458 -3.2630 0.1201 -0.9031 -0.9784 -1.4743 -0.1312 -1.8709 -4.0294 -3.4117 2.5839 -0.3172 -2.0113 -5.0508 -0.4291 0.6323 4.4049 0.2848 0.6074 -0.5770 6.0658 4.6880 5.1017 2.6494
-1.7266 -2.5867 -3.2724 -2.1817 -0.1256 -0.2454 -6.2243 -5.8388 -0.6957 -0.2987 -2.6542 -0.9152 -0.9789 -1.9834 -0.8181 -7.0454 0.2048 -3.0379 -2.0468 -5.3486 -2.2476 -2.1990 1.2942 -0.8585 -2.6129 -1.5124 3.8881 1.8099 1.9598 -1.5597
0.7872 -1.9163 -3.8206 -0.0839 -0.1655 -0.9002 -4.9735 -6.2240 -0.0350 -0.4262 -1.8341 -2.2268 0.5294 -1.2891 -0.0423 -4.9321 -0.4893 -4.3348 -1.6523 -2.3863 -3.2691 -3.2108 0.3260 -0.8384 -3.2335 -1.8714 0.6817 -0.0192 -0.1626 -3.4572
0.2051 -0.7299 -1.6644 0.9071 -0.1878 -1.9173 -0.4143 -4.7310 2.4489 -0.3904 -1.9226 -1.9212 3.5857 0.6916 -1.6312 0.2390 1.8908 -2.5216 0.0079 1.1468 -1.4269 -0.6595 2.5505 1.1062 0.5023 -0.8674 1.8991 2.1665 2.1519 0.3915
-2.3246 -1.1365 0.2681 -0.8135 -0.5094 -1.4860 -0.8435 -2.9326 3.2619 1.3557 -5.3371 0.6195 3.6868 2.4194 2.8419 -1.5154 4.6979 -0.3460 2.8431 2.5943 0.8863 1.9426 4.2325 3.3240 2.1057 -0.7426 6.5425 5.5742 5.1614 2.0871
-4.0743 -3.2376 -2.1424 -2.9388 -1.4551 -1.6022 -6.7902 -1.5189 1.4707 3.2383 -10.3290 2.0097 0.6325 1.7209 10.4862 -8.4424 5.0727 -0.2387 4.5914 2.1719 1.0435 2.3060 3.4180 4.8662 1.5681 -1.2952 10.8711 8.7922 7.9184 2.2484
-3.8459 -3.9876 -5.1024 -2.5221 -2.1419 -2.7192 -8.9849 -0.9439 0.6720 3.2099 -11.0402 2.1928 -0.7248 -0.2140 10.7586 -9.2413 4.2967 -0.1485 3.8061 1.7037 1.0394 2.7231 2.8225 5.9436 3.9836 -0.2088 13.1795 11.5787 11.3415 6.2261
-1.9493 -1.6499 -2.3210 -1.0812 -1.0202 -1.4191 -4.1515 -0.9323 2.1326 2.0857 -1.9954 3.3637 0.6717 -1.0254 4.3287 -1.7830 4.0909 0.8826 1.6293 1.3799 1.6563 3.2993 3.3861 4.8682 5.8326 1.3365 8.1204 8.2152 9.2333 7.5781
-0.7717 1.0837 2.5134 -0.6687 1.1887 1.6059 1.3601 0.2007 3.3933 1.0044 9.5781 3.0383 1.7186 -1.0405 -1.4798 4.4265 3.2582 0.0628 -0.4893 -0.5549 -0.0825 1.2750 2.8134 0.1960 0.9860 1.3246 -5.2703 -2.7866 -1.3635 0.7814
-2.5752 0.7556 2.1373 -0.7956 2.3445 2.4571 1.6125 1.4070 3.2588 -0.0233 11.0172 -1.5967 1.3465 -0.8099 -4.5505 2.8045 1.3474 -2.8068 -1.8365 -3.6458 -3.5116 -1.6073 1.4742 -4.3448 -5.9260 0.4262 -11.8641 -9.2460 -8.9712 -6.4131
-4.9209 -1.7385 -0.7476 -1.3990 2.2291 1.4942 -1.4979 -0.2782 2.6025 -0.8217 4.3179 -6.5310 0.5536 0.6654 -5.1905 -1.7029 0.2388 -4.5497 -1.5743 -3.5257 -4.9711 -1.4797 1.8033 -3.7074 -6.8026 -1.6330 -2.7942 -3.2098 -4.7638 -7.5784
-4.3871 -3.0079 -0.6102 -2.5396 1.6459 0.3345 -2.3691 -3.2566 1.8306 -1.0874 -1.3734 -6.8161 -0.2229 2.5124 -2.7020 -2.3419 0.3195 -4.6648 0.4263 1.3790 -5.2833 -0.2127 3.1475 0.7587 -3.0004 -5.4509 5.2299 4.2838 2.2467 -5.7889
-2.8113 -2.2497 0.1828 -2.8810 0.4767 -1.0025 -1.3935 -4.1663 0.6118 -0.5839 -2.7671 -3.8386 -1.3027 2.3070 1.3003 -0.9258 -0.3027 -5.0364 2.2161 4.7185 -6.8856 -1.9193 2.8529 2.9050 -1.2786 -8.0570 -3.1245 0.4794 0.3799 -4.9500
-2.6158 -0.9581 -0.7192 -2.0210 -0.8731 -0.7964 -2.0428 -3.1556 -0.6071 0.5350 1.7443 -1.3268 -2.3644 0.8359 3.0338 -0.7961 -1.5856 -5.0813 2.0910 1.7481 -7.5872 -4.7406 0.7535 0.7123 -2.8574 -6.4109 -16.3620 -9.0610 -6.7196 -5.0425
-2.3722 -0.0465 -0.6181 -0.9612 -1.1178 1.1622 -2.3432 -0.9173 -0.4011 1.1655 8.0919 0.0627 -1.3176 0.9857 1.3731 -0.1720 -0.4842 -2.3274 1.5642 -1.7077 -3.8904 -3.2222 -0.2907 -0.9636 -3.2928 -0.8983 -14.9541 -9.4797 -7.3191 -3.6782
-1.6653 0.2306 0.4192 -0.0129 -0.2368 1.3583 -0.4550 1.2224 1.3979 0.8676 6.2737 1.6930 2.2665 2.3710 -1.0924 0.7584 3.4996 2.6099 2.1013 -0.5053 2.8374 2.3297 1.2548 1.0152 -1.1247 6.1077 -0.1483 0.0443 -0.3678 -0.1754
-1.5446 -0.1652 0.2528 0.9580 0.5402 -0.3079 0.2544 -0.0117 2.7792 0.7385 -2.9183 4.1065 4.2323 2.2684 -1.5484 -1.3520 5.9836 5.1016 1.9556 0.6928 7.0090 5.2613 2.9422 2.8468 0.2543 10.1286 9.7221 6.1497 4.3128 2.4463
-0.6379 -0.3424 0.3449 1.7095 0.7554 -0.1906 -0.3127 -2.7872 2.7061 0.9011 -7.9589 6.1292 2.2571 0.6441 -0.6866 -3.7714 4.5840 2.7615 0.2892 -0.5651 5.4252 2.7209 2.8114 1.9147 -0.0150 7.6592 5.6405 3.3229 2.7517 2.4457
1.0078 0.5322 1.2028 2.1620 0.8227 1.1036 1.8162 -1.5281 2.6058 -0.0169 -4.6710 5.7158 0.1887 -0.3654 -2.5120 -0.6724 2.3376 -0.9970 -1.0284 0.2197 0.7671 -0.9745 2.2706 0.9827 0.4431 1.8203 -4.0603 -1.7312 -0.3759 1.2662
-0.7962 0.7452 -0.6219 1.6259 0.5102 0.3997 2.2726 0.3863 2.7792 -1.2639 -1.0739 1.3669 -0.1085 -0.5122 -4.8712 2.4229 0.9456 -3.6079 -0.8229 2.7384 -3.7399 -3.2177 1.5853 0.7988 0.4551 -3.1426 -10.5011 -5.1961 -3.0601 -1.2623
-6.7158 -1.9220 -5.7624 -0.9822 -0.6444 -0.7376 -7.4263 -4.0983 1.5646 0.1211 -3.2871 -5.7052 -1.9936 -0.9993 1.8970 -4.9202 -1.4992 -6.9754 1.0036 2.6010 -8.2503 -5.8508 -0.5577 -0.5483 -2.7051 -8.6481 -13.0915 -8.1680 -6.2205 -6.6326
-9.8650 -4.6452 -8.4725 -3.4493 -1.4430 0.5495 -17.7787 -9.1558 -0.2261 3.3317 -3.5134 -10.0296 -4.4547 -1.4945 12.9895 -13.8009 -3.9987 -9.9084 3.2215 1.0215 -11.2292 -7.6494 -2.0017 -1.6250 -6.1357 -13.8324 -13.1019 -9.2337 -7.8138 -11.9324
-5.6610 -2.7002 -4.1524 -2.0223 -0.4368 1.9270 -10.2973 -5.6588 0.2115 3.6521 4.6670 -6.4784 -2.2759 -0.9281 9.3737 -6.6407 -3.0929 -7.3558 3.0995 0.9837 -8.7187 -5.0119 0.2120 -0.5901 -5.0055 -12.1999 -10.7372 -6.9661 -6.0899 -11.0426
0.3773 1.5651 2.7360 1.2320 1.0208 0.6373 7.1573 0.6902 2.0673 1.0649 9.0245 2.2886 2.2613 0.3048 -5.4234 7.6303 -0.1323 -0.9105 1.1659 1.1557 -2.3661 -0.0590 3.5232 0.5557 -1.1014 -4.3436 -6.4645 -3.6052 -3.1662 -4.3558
1.8376 2.5028 4.7598 1.5926 1.0680 -1.0400 11.8982 1.4094 2.3814 0.1309 1.1928 8.1679 2.8198 1.4711 -9.7649 8.7049 1.0027 2.4767 0.7682 0.4813 1.5759 2.3800 3.7013 0.6684 0.9528 0.7925 -1.1427 -0.6622 -0.5982 1.0363
0.6520 1.0542 2.1596 0.2712 0.8551 -0.7943 5.6105 0.0538 1.5700 0.9608 -4.4997 7.4104 1.0968 2.6981 -4.7623 2.7348 0.8392 1.9457 1.6049 1.1026 1.5595 2.5016 1.6619 1.7291 2.2236 0.2508 2.7109 3.0836 3.0779 3.2459
-0.2197 0.4383 -0.9388 0.0588 1.4416 0.3374 0.5192 -0.4678 1.2128 1.2615 2.0401 3.1308 1.0242 3.3837 -1.6326 2.5284 1.0548 0.4408 2.1742 3.4626 -0.3918 1.8179 0.4381 3.6584 4.1192 -2.4729 2.4320 6.0449 6.4607 3.7243
-1.9117 -0.6331 -3.7629 -0.1877 1.3272 1.3660 -5.8154 -3.9619 0.5908 2.3271 8.3738 0.5976 0.1360 2.4570 4.9962 0.3623 0.4880 -2.1845 3.9488 4.4251 -3.3314 -0.4008 0.1939 3.6844 2.4789 -5.6631 -0.2043 3.8343 4.4452 -0.8056
-3.2102 -2.3448 -5.3432 0.0697 0.3152 1.4485 -10.4913 -7.4725 -0.0241 3.6256 3.2876 2.5215 -2.1375 0.9025 11.7539 -6.4908 -0.3661 -4.5609 5.6219 2.2909 -4.4462 -2.3335 0.2947 1.2385 -3.1477 -6.4220 -0.9466 -2.0558 -2.2263 -8.4088
-2.3911 -2.1676 -4.1735 2.7167 0.0950 -0.5421 -3.9510 -5.4500 1.2925 1.8448 -4.7664 4.6122 -1.2016 0.5283 4.0538 -6.1295 0.6407 -4.1566 2.9708 -1.0747 -2.1777 -1.8589 0.8292 -2.2095 -7.4141 -2.6227 0.1978 -5.6894 -7.2831 -11.3906
-2.9052 -1.6457 -3.1655 4.2331 0.2626 -2.7911 2.8680 -3.8123 3.4421 -1.1046 -4.7470 0.1406 1.9423 0.9815 -8.1375 -1.3505 1.9364 -3.8900 -1.9762 -3.6681 -1.5625 -1.8949 0.9945 -5.6839 -9.6765 -0.0189 -0.9920 -7.0077 -9.6266 -11.7366
-6.0242 -3.4785 -4.4768 1.3554 -0.4924 -2.4625 -3.1556 -7.6053 3.2038 -1.2125 -1.6424 -7.0408 1.4141 1.0947 -6.9028 -4.2138 1.2130 -5.7923 -3.1236 -4.4858 -4.6125 -3.7121 0.7582 -7.1506 -11.2859 -1.8732 -5.8000 -8.1177 -10.5478 -13.0024
-7.2743 -5.1708 -4.3533 -1.7922 -1.1743 -0.6681 -9.6490 -8.8563 0.8763 0.0894 -4.3710 -7.3485 -1.4954 1.1700 -0.3195 -9.6626 0.5178 -5.3675 -0.3691 -3.4737 -4.7336 -2.9277 1.7308 -4.8271 -9.3134 -1.3864 -7.8765 -5.0565 -6.7566 -8.7708
-5.3272 -4.2266 -0.7564 -1.3177 -0.5936 -0.1533 -4.9206 -4.0562 -0.2169 0.1794 -8.7692 -2.6845 -0.6516 1.8037 -0.0422 -8.1942 2.1062 -1.2363 2.1311 -2.6813 0.3704 1.6893 3.6757 -1.2574 -4.3639 3.9388 0.3532 3.5868 1.3989 0.5577
-2.5891 -2.3766 2.7456 0.3678 0.5847 -0.6829 2.1363 -1.6511 0.8040 -0.4712 -7.0566 -0.5026 2.8645 2.6381 -2.1930 -2.8646 4.1527 1.6652 3.0048 -2.7699 4.0621 5.3356 4.3127 0.0972 -1.6844 6.9554 13.5482 9.4732 5.8733 3.5443
0.1474 -1.1636 3.3096 0.3293 1.3836 -0.6293 3.5945 -3.5509 1.5870 -0.9414 -3.3389 -0.1844 2.9762 3.0768 -3.6991 0.3336 3.9509 0.8540 3.0704 -1.3550 2.0538 4.3072 2.6528 -0.3655 -2.2312 3.4134 14.6452 5.6360 2.2757 -1.6331
0.9617 -0.6580 1.1287 -1.2157 1.2356 -0.2599 1.2681 -3.3367 0.7886 -0.7358 -4.4092 -0.5468 -0.5299 2.6715 -3.9838 -0.8093 1.3955 -2.3673 2.7486 0.7120 -3.4913 -0.6753 -0.4031 -1.2683 -3.8736 -4.1772 -0.1661 -3.9038 -4.8383 -6.8159
-1.9164 -1.0569 -2.0708 -3.2375 0.1795 -0.7338 -2.6852 -1.8401 -0.4331 0.1788 -4.1700 -3.6777 -3.1947 1.2624 -0.5343 -4.0107 -1.6106 -6.3594 2.4323 0.1483 -8.4528 -5.7150 -3.0465 -2.2027 -5.6684 -10.9698 -12.0064 -10.2066 -9.1785 -9.8108
-4.6633 -1.6369 -3.8060 -4.7733 -0.5424 -1.9709 -5.8950 -4.5577 -0.9938 0.7667 1.2747 -6.2392 -3.5931 -0.4406 2.4533 -4.6035 -3.2859 -8.6895 2.3263 -1.4397 -9.7943 -7.2030 -4.0571 -2.4290 -6.3814 -12.4936 -9.4091 -10.3964 -9.3565 -12.0944
-4.4428 -1.6143 -4.1129 -4.7674 -0.2373 -3.0164 -6.6071 -9.4328 -0.9565 0.8044 -0.6069 -4.9021 -3.1618 -1.6352 -0.6284 -5.0185 -3.7132 -8.5806 1.5695 -2.0882 -8.7715 -6.8962 -4.5364 -3.1293 -6.3456 -10.1407 -6.6513 -9.9143 -9.1285 -11.6247
-4.2928 -1.5606 -5.0408 -3.3864 -0.0163 -2.9323 -6.2621 -10.1018 -0.5667 1.2182 -10.4919 -3.7206 -3.2272 -2.4712 -5.6464 -8.9384 -4.3564 -8.7944 -0.6454 -4.8182 -9.6348 -9.1774 -5.8575 -6.7064 -8.2887 -10.1225 -15.6108 -13.7943 -12.1540 -9.4198
-4.5815 -1.7468 -5.8820 -2.3872 -0.5902 -1.5036 -6.2497 -6.5512 -0.2982 2.1086 -8.9446 -4.5799 -4.5962 -2.8220 -5.5009 -10.5724 -5.4613 -10.2159 -2.7311 -8.9581 -12.3739 -12.6603 -6.9192 -10.6580 -11.5554 -12.6915 -26.0498 -19.1489 -16.6096 -10.2817
-2.4023 -1.8332 -5.3301 -2.5282 -1.2023 -0.3762 -6.5842 -4.1793 -0.3563 2.6118 1.8979 -3.6111 -5.8928 -1.8121 -0.6582 -7.2315 -5.2146 -9.6766 -1.7422 -7.9073 -12.3913 -12.0150 -6.1730 -9.4073 -11.5296 -12.2981 -26.4019 -18.9980 -16.6425 -12.0265
0.2499 -1.7267 -4.6826 -2.1679 -1.2277 -1.4552 -5.9495 -4.3249 0.2206 1.9737 -0.3547 0.0824 -4.3280 0.2160 2.7034 -5.1741 -2.3976 -5.6814 2.1929 -1.5265 -7.6806 -6.8681 -3.8693 -3.2185 -6.6335 -7.7279 -18.4672 -11.4686 -9.8914 -7.8046
0.7386 -0.8198 -3.8550 -0.8070 -0.7212 -2.8463 -3.3555 -3.9972 1.5134 1.2429 -9.7294 3.5775 -0.7702 1.7792 2.8638 -4.9958 0.9244 -1.3383 5.4618 2.1121 -1.7583 -2.2632 -1.5271 1.7913 -0.7758 -3.0049 -9.3901 -3.3824 -2.0127 0.1788
1.9529 1.0907 -1.5988 -0.1653 0.0742 -0.8016 -1.4627 -3.0949 1.8640 2.4273 -2.2126 4.7717 1.0658 2.4170 3.2217 -1.7904 1.5676 -0.2758 5.7448 0.0190 0.4662 -1.5872 -0.5814 2.5005 2.2344 -1.5163 -5.4420 -1.5578 0.7463 3.7173
4.3687 2.2176 -0.1042 -0.0563 0.5429 2.6532 -1.7145 -2.9969 1.0464 3.9940 13.8069 3.5861 0.7572 2.7325 2.8513 3.1559 0.4141 -1.6763 4.6582 -1.6300 -0.7391 -2.6050 0.2120 2.3238 3.7212 -2.3594 -5.9461 -1.7099 1.6547 3.7232
2.9120 1.1368 -0.6492 0.5306 -0.0387 1.7255 -0.6514 -2.1334 0.2225 2.9713 12.1219 2.2797 0.0634 2.9590 0.4385 5.1039 1.0201 -1.6409 4.8774 1.1739 -0.2702 -1.4101 3.4894 4.6347 6.4326 -1.3804 -2.4684 3.4936 6.3975 6.9212
-1.6357 -0.5362 0.4097 0.3824 -1.1638 -2.5639 3.2642 0.1183 -0.5834 0.9633 -2.4278 2.7507 -1.1078 2.5835 -0.3504 4.2192 2.5965 0.1345 5.3414 3.6200 2.5696 1.0851 7.0833 6.6095 8.0730 2.3169 5.2398 9.2089 10.4733 11.1437
-1.8361 -0.5841 3.4585 -0.2082 -1.2632 -4.4289 6.9715 0.6513 -0.8518 0.4129 -8.1770 3.6352 -1.8727 1.5819 -0.6715 3.5108 1.5214 0.1975 2.9299 1.1172 2.8728 1.0229 6.3215 4.1628 5.1436 4.6986 6.5752 6.9865 7.2639 9.9180
2.3301 0.1529 2.9036 0.5630 -0.2513 -3.7189 6.5016 -2.3723 0.4309 0.5045 -6.8626 3.3439 -0.5383 1.2593 -2.7507 1.9311 -1.0986 -1.7152 -0.2919 -2.8737 0.0210 -1.3729 2.5697 -0.4938 0.3139 3.5038 0.7237 0.5118 0.8415 5.2426
3.8679 -0.3196 -1.4373 1.1024 0.2159 -3.0505 0.8370 -5.7172 1.5186 1.5198 -8.5404 2.5954 0.1639 2.0452 -0.2890 -2.6034 -1.8541 -2.8423 0.3388 -3.8166 -1.8245 -3.0458 0.3700 -2.5557 -1.6165 0.2984 -1.1568 -1.7925 -1.3885 2.3382
2.5396 -1.0214 -2.3032 0.0567 0.0183 -1.2018 -3.8096 -5.0864 0.7778 4.1052 -5.5977 2.5914 -2.1537 2.3327 6.4141 -4.7951 -1.2559 -2.7024 3.0095 -2.6660 -1.3927 -3.0419 0.1014 -1.2317 -0.1017 -1.9887 4.4046 1.4029 1.5495 2.0144
3.0376 0.0705 1.5027 0.1972 0.6876 1.8922 -0.9078 -1.1072 0.4216 5.0076 7.2057 3.2065 -3.1272 1.5713 5.9912 0.9709 -0.6456 -1.9955 3.2704 -1.5910 0.2367 -1.4692 0.4125 1.6737 3.1645 -0.3470 10.2669 7.0517 7.0403 4.4149
4.4574 1.6742 2.8682 1.9544 1.6819 2.7944 3.9987 2.1862 1.5597 2.5760 15.7175 2.8489 -0.3994 0.8264 -0.9571 7.3555 0.3387 -0.8575 2.0105 -1.1904 1.9130 0.5465 0.7968 3.4713 5.3281 3.6041 10.2485 9.6764 9.8587 7.4979
4.1174 1.4496 0.4474 1.5654 0.9710 1.1669 2.1034 2.4910 1.4427 0.9425 8.4159 1.0529 0.9056 0.1253 -1.1307 3.9084 0.5288 -0.8448 1.7705 -1.7902 1.3922 0.1173 0.0806 1.7924 3.3895 4.1093 3.6940 4.2691 5.0164 6.4202
3.9559 0.2337 0.2153 -1.0103 -0.7417 -0.4177 -2.6058 0.0384 -0.3916 2.2127 -5.3790 0.4356 -0.6947 -0.4464 6.4987 -4.0043 -0.5537 -2.6170 2.5097 -2.0438 -0.6299 -1.8137 -0.7987 -0.6092 0.6300 1.6289 -2.6643 -2.7037 -1.2949 4.0904
4.9984 -0.0613 2.0213 -1.6143 -1.1160 -1.8551 -1.8446 -2.4754 -0.8273 2.7908 -10.1943 2.5452 -0.5341 0.3801 8.7323 -3.7079 0.1358 -3.1084 3.3523 -0.1225 0.1018 -0.6394 1.0228 0.6358 2.8160 2.0952 -0.4031 -0.3790 1.0422 7.1338
4.7460 0.3494 1.2212 0.3971 -0.3166 -2.9809 2.3072 -1.6538 0.4804 1.4585 -3.9340 4.7705 1.0560 2.1254 1.0739 3.7423 3.1629 -0.5248 3.2257 2.1204 3.2626 2.6859 4.0042 2.7816 6.6505 5.4500 6.2223 6.2503 6.8684 10.9842
3.6758 0.8397 0.6192 2.0775 0.2614 -1.4651 4.5651 1.3822 0.9885 1.6176 5.3620 5.4121 0.3735 2.6443 -5.7520 8.5290 4.5589 2.3074 2.0326 1.5900 4.7973 3.5020 4.4544 1.6505 6.0231 7.5156 6.6994 6.4190 6.3402 9.4078
4.2276 1.4377 3.7826 2.4208 0.6786 1.4826 5.3865 2.2275 0.6739 3.4152 9.2426 6.2680 -0.6471 1.7284 -4.3684 7.8316 3.1559 2.8862 1.6834 -0.7694 5.0873 2.7009 3.4648 0.1422 3.7968 8.3878 3.4062 4.3118 4.1554 8.0615
4.5294 1.1300 5.2861 2.0735 0.8533 1.7549 4.3581 -0.5099 1.0997 3.3486 3.1420 7.0974 0.3157 0.8457 -0.1602 3.3995 1.7047 1.5972 2.7002 -2.0589 5.6571 2.8516 3.2029 1.0397 3.8734 8.8563 4.3348 6.5782 6.4372 10.5101
2.9085 -0.6166 1.6951 1.3263 0.2594 -0.2978 0.4794 -4.3771 1.5949 1.6853 -5.2282 5.6348 0.3067 0.4433 0.7106 -1.6055 1.0918 -0.5720 3.2291 -1.9946 4.6307 2.2204 2.7267 1.7524 3.9374 6.4780 8.4501 9.4193 8.9280 10.4462
2.1862 -1.7037 -1.1073 0.8655 -0.1234 -1.6996 -0.7966 -5.6543 1.1400 1.4411 -3.7935 3.5228 -1.9216 0.0403 -1.0189 -0.9132 0.5331 -2.1184 2.9335 -1.4049 2.6184 0.2937 2.2605 1.5092 3.7969 1.7454 11.7729 10.8189 9.8728 7.6775
3.3747 -0.5349 0.6162 0.7278 0.4292 -1.7968 2.9484 -2.7303 0.6653 2.4537 2.5798 3.5877 -3.2004 -0.3087 -2.1220 4.5776 0.4905 -1.6811 3.2461 -0.0331 2.8123 -0.4686 2.7891 2.1084 5.4621 -0.2694 11.9630 11.6214 10.7716 7.9778
4.7452 1.3614 3.8147 0.1494 0.7042 -0.2689 4.9882 0.9335 0.9107 3.1260 3.0207 5.2904 -2.2209 0.0812 -0.2299 5.8769 1.4221 -0.0224 4.5819 1.3569 4.4704 0.0318 2.7379 2.3911 5.9782 2.3243 7.9540 8.6020 8.3365 8.8705
6.4797 2.1552 6.1501 0.0675 0.2631 2.2987 3.4699 0.9590 1.3988 3.7500 0.8232 7.4540 -0.5872 1.4377 4.1867 2.7321 2.8034 1.3978 6.6680 1.5413 5.1735 0.4699 2.1586 1.5804 3.7792 6.0131 4.4269 3.7088 3.6275 7.1057
8.1724 2.3076 7.4408 1.5328 0.2226 3.1919 3.9820 -0.9289 1.9417 4.2759 1.6431 8.0880 0.7901 2.6763 6.5374 2.5624 3.6720 1.3588 8.5932 1.3664 4.3332 0.2832 2.7851 1.7874 2.8791 7.3818 3.4773 2.1880 2.2620 6.8592
7.9593 2.9752 6.7974 2.9156 0.7604 3.1203 5.9083 0.1917 2.6112 3.7270 5.0578 4.6544 1.5110 2.6218 3.8443 5.0135 2.8934 -1.2600 8.0418 1.0733 1.1661 -1.8917 2.4980 2.3689 3.3263 5.5577 -1.6325 -0.2371 1.2661 7.2999
6.6924 3.6469 3.9309 2.6402 1.2323 4.8963 3.9262 3.6274 3.0388 2.8893 10.3791 0.3390 0.7862 2.0252 0.6521 4.6841 0.9781 -4.6117 5.1409 -0.2260 -3.1707 -5.3463 -0.1983 1.1753 1.2478 1.6278 -9.7064 -6.9291 -3.7204 2.2883
5.9913 3.1269 1.3230 1.6310 1.6420 5.9319 0.2847 4.4565 2.9456 2.8682 11.1185 0.6264 -0.8014 2.3937 1.9132 1.9611 0.4614 -4.6884 3.9859 -0.4911 -4.1376 -5.7547 -1.2111 0.5409 -1.0436 -1.1069 -9.3983 -9.5607 -6.5269 -3.6686
5.1795 1.8409 1.8885 0.9677 1.9948 3.4151 0.8255 2.1323 2.4833 2.5959 1.0713 4.1057 -1.5395 3.4647 4.2225 0.2983 2.0889 -1.2835 6.0323 1.8477 -0.4884 -2.0579 1.5831 2.9710 1.3280 0.2256 -0.1870 -2.7147 -1.1740 -0.4221
3.9507 0.8643 3.5111 0.9849 1.9765 0.6819 3.6516 0.3218 2.2882 1.4103 -9.4157 5.8314 -1.0769 4.1265 3.0660 -0.1280 3.6091 1.8061 7.7922 3.0229 3.2734 1.3258 4.2298 5.7230 5.6550 3.6892 8.0770 6.7657 7.3740 8.6669
2.9096 0.1968 1.3624 2.4972 1.7194 -0.3470 4.2786 0.9597 3.1736 0.5081 -8.3216 3.7248 0.0305 4.0943 0.2633 -0.0472 3.8006 2.2880 7.1806 0.2244 3.8670 1.8209 3.9486 5.7871 6.2194 4.8733 11.6220 10.6149 10.9188 11.8143
1.9771 -0.1414 -2.6764 4.3236 1.4560 -1.5421 3.4934 2.2992 4.3975 0.4978 -2.0498 -0.4984 1.3207 2.9429 -1.5184 0.6121 3.5399 1.0521 5.8433 -3.2300 2.8899 1.1192 2.3519 4.0249 3.6760 3.2727 10.5344 7.5959 7.8574 7.9836
1.4704 0.2600 -2.5476 2.9854 1.0672 -1.3286 1.3638 1.1721 3.9594 1.2643 -1.0766 -1.6089 1.2987 0.2268 -0.9815 -0.6624 2.5218 -0.6399 5.0678 -4.0683 2.0135 0.0247 0.5781 1.5478 1.3857 1.5161 2.5393 0.8109 1.7808 4.2569
1.6151 1.0150 1.0164 -0.5806 0.5869 2.0259 -2.4473 -1.1566 2.4012 2.6984 -2.9520 2.3145 -0.6869 -2.4974 2.1945 -4.5648 -0.1616 -2.4461 4.1474 -3.5566 0.1710 -2.1398 -2.0211 -1.7151 -0.8163 0.7691 -8.4860 -5.7153 -3.8505 2.2876
1.9410 1.6699 3.6582 -1.1015 0.2268 4.4186 -1.5865 -0.0297 2.6019 3.4763 -0.0315 5.6099 -2.0400 -2.8546 3.1272 -4.1423 -2.6981 -3.2952 2.5262 -3.5461 -2.0355 -3.8312 -4.1189 -4.2011 -3.0714 1.1793 -12.1108 -8.0470 -6.5741 0.3907
2.6706 2.0933 5.3860 1.4069 -0.0885 3.0955 5.7204 2.6533 4.3295 2.7991 6.6943 4.6503 -1.0176 -1.2889 -0.8516 2.7048 -2.7641 -1.9551 1.0382 -4.0064 -2.0443 -3.2610 -3.3460 -4.1903 -3.6880 2.0574 -6.8719 -5.7940 -5.6625 -0.7649
2.8676 1.3699 6.1452 1.6694 -0.5968 1.3779 8.4041 2.0407 4.2376 2.5029 7.5373 2.6074 -0.2420 -0.4377 -2.0540 4.8563 -1.3693 0.0508 0.8430 -4.5818 -0.9865 -1.7528 -0.8112 -2.9246 -3.2867 1.0854 -1.0459 -3.1337 -3.6659 -1.3521
1.2046 -0.4546 4.2968 -0.5606 -1.0987 1.3427 2.8739 0.4489 2.3907 3.1144 -0.1867 2.1226 -1.2498 -0.8399 1.6816 -1.4234 -0.3397 0.4255 1.6586 -4.7831 -1.0216 -0.4194 0.6258 -2.2978 -3.3861 -0.8968 2.6434 -2.4085 -2.9538 -2.4318
0.4861 -1.2877 1.8556 -0.7473 -1.0593 1.1586 -0.3957 -0.3379 2.3866 2.5430 -5.8322 2.5343 -0.6830 -0.7480 1.0251 -4.6739 0.5942 0.0322 2.0421 -4.3030 -0.3592 1.4856 0.6914 -2.5384 -3.3371 0.0105 5.9213 -1.8218 -2.8241 -2.8380
2.7966 -0.7185 0.7267 0.6469 -0.7301 0.4051 0.0440 -3.0060 3.9828 1.6955 -3.5569 3.0688 2.0431 0.0595 -2.4125 -2.2311 1.2416 0.3479 2.0096 -3.5419 1.2851 2.6061 0.4372 -3.2871 -2.8128 2.2908 5.0164 -0.9893 -2.4644 -1.6280
4.2873 -0.3056 -0.1954 -0.4789 -0.9636 0.2264 -2.5366 -4.5246 3.6087 2.9661 0.0366 4.0066 1.6782 0.1572 1.3404 -1.7398 0.4376 0.4112 2.6903 -2.2883 1.1710 0.9620 0.1087 -3.5853 -1.8454 1.3939 -1.9969 -1.7734 -2.4572 0.3087
2.7872 0.3049 -0.2448 -2.6976 -1.4846 0.2866 -4.0968 -1.4307 2.2659 3.8569 0.9197 5.4330 -1.9860 -0.5126 5.9480 -1.5475 -0.7705 -0.3296 2.9056 -0.9351 0.3830 -1.4022 0.0282 -2.7447 0.4306 -0.6306 -8.4934 -4.5329 -3.2602 2.2218
1.4901 1.7795 1.0946 -2.0561 -1.1863 0.3657 -0.1578 1.1941 3.0944 1.7945 1.1509 6.1855 -3.0777 -1.0723 0.5503 1.7322 -0.8583 -0.6599 0.5113 -1.7906 1.1880 -1.9861 0.2649 -2.5085 2.3149 0.2905 -9.7871 -7.8104 -4.9260 3.0118
1.8904 2.3697 1.5366 -0.2540 -0.0323 0.9632 2.8431 0.7034 3.8785 -0.0638 0.5145 4.5935 -1.9670 -1.5637 -7.6726 2.7600 -1.2105 -0.7833 -2.9754 -4.5068 0.8686 -2.2738 -0.3323 -4.3186 0.7856 1.6782 -8.6330 -9.5339 -6.7065 1.5318
2.5552 1.2292 0.8627 -0.2828 1.0501 1.1572 1.5628 0.6353 2.2075 0.6009 -3.4259 0.1572 -2.8191 -1.7871 -7.6803 -0.4927 -2.7364 -2.4895 -3.7718 -4.8631 -2.4826 -3.7638 -2.2555 -5.8889 -2.3932 -0.1966 -7.2241 -8.6822 -7.2570 -0.9656
3.3033 0.0256 0.4329 -0.3303 1.4871 0.5128 -0.2695 0.4070 1.2548 1.2359 -11.5543 -4.2620 -3.5733 -1.2592 -2.8392 -4.7595 -3.4020 -5.3021 -1.8605 -2.6150 -5.2397 -5.0060 -4.1077 -5.1729 -3.5956 -3.6332 -4.7045 -7.0390 -6.6256 -2.5208
3.8576 -0.5568 -0.9790 0.5773 1.1392 0.7391 -2.6078 -1.9000 2.2323 0.9607 -18.5251 -4.1791 -2.6333 -1.2880 -0.5773 -9.8019 -3.0883 -6.9111 -1.0693 -3.4206 -5.5747 -5.6907 -5.3503 -4.6604 -4.1805 -6.0001 -3.2342 -7.1079 -6.3765 -3.5465
3.0612 -1.0696 -3.1668 -0.5290 0.1083 2.2107 -6.7654 -3.4571 1.3807 2.2833 -12.6803 -0.4390 -4.0213 -2.8820 0.8197 -12.9964 -4.3501 -7.2267 -2.1743 -8.4276 -6.3511 -7.5105 -7.0703 -6.8816 -6.5989 -7.3863 -6.4250 -9.2440 -7.7843 -5.3116
2.8941 -0.5236 -1.9813 -3.0127 -0.8971 2.7967 -7.2690 -2.5651 -1.0041 4.3989 4.9021 2.2077 -6.8002 -3.7032 2.7237 -7.7533 -5.7542 -6.2397 -1.8015 -10.6216 -6.3658 -8.4537 -7.8780 -8.7866 -7.5541 -5.1855 -9.8378 -10.8866 -9.4575 -5.7469
6.1579 1.6248 3.1932 -2.3748 -1.2216 1.1902 0.5314 -0.4912 -0.5531 3.5094 12.3641 3.5141 -4.5506 -1.7439 -1.2817 3.0816 -2.9538 -1.4886 0.7306 -6.4816 -0.4685 -3.9261 -4.5769 -5.9607 -3.0802 4.8702 -4.3949 -7.3924 -6.8500 -0.1598
10.0969 3.0077 7.1001 0.3031 -1.2964 -1.0597 9.0490 1.7910 1.5559 0.9603 1.3566 5.7399 0.9438 0.7047 -8.7874 8.0516 2.2803 5.3236 2.9997 -1.6087 8.1598 3.6748 1.3101 -0.1610 3.5133 16.9073 6.7056 0.8830 0.6057 9.8667
10.6418 2.1865 6.7900 0.2920 -1.7768 -1.4509 8.1507 2.1243 0.8781 1.4134 -7.0330 7.7067 1.4175 0.7373 -7.0104 5.0500 3.7862 7.2578 4.6756 -0.5681 10.2284 6.1939 4.7359 3.0934 6.5095 18.7038 9.7601 4.8951 5.1745 14.8504
9.0450 0.8827 3.6242 -0.9168 -2.4000 -0.1173 0.9110 -0.1855 -1.1223 3.6047 -1.1417 6.3871 -2.5500 -0.8656 2.1842 1.9188 1.1753 2.8729 5.8897 -1.0641 5.3103 2.2970 4.4829 2.5263 5.6274 10.7334 3.1732 0.4314 2.3414 10.6542
7.5344 0.3246 -0.4772 0.3952 -2.6559 0.5920 -2.7559 -0.6402 -0.5523 3.4062 6.1144 1.4062 -3.3889 -1.7490 4.7679 1.9032 -1.0266 -1.7647 5.0052 -0.9408 0.6228 -1.6141 3.0301 1.1004 3.4588 4.3412 -1.0252 -3.7073 -1.3478 4.1908
5.8719 0.1380 -1.7655 1.5375 -2.4621 -0.2112 -0.0250 2.2009 1.2495 1.8587 6.7484 -2.2868 -1.0210 -1.4786 -0.2782 2.9943 -1.2745 -2.6069 2.5192 -1.9360 -0.7498 -2.1772 2.0430 0.0601 1.4003 3.6849 0.8009 -1.6655 -0.5664 2.6576
5.1212 0.2619 2.0260 -0.4446 -1.8578 -1.1770 4.3420 2.3902 1.3781 1.4682 4.0422 -0.7846 -0.7666 -1.2986 -3.9155 3.5313 -1.1036 -1.5700 0.8714 -4.6375 -0.8655 -1.9696 1.2530 -2.1007 -0.4701 4.1774 0.7915 -0.5166 -0.3495 4.1309
6.2650 0.5876 5.5958 -2.1448 -1.0654 -0.5139 4.9510 -1.2412 0.8476 1.5780 -0.0516 1.1823 -2.0678 -2.0839 -3.7315 1.2800 -1.7011 -2.0984 -0.1827 -7.1592 -2.1791 -3.6906 -0.6147 -5.7784 -3.4578 2.1700 -3.4378 -5.4274 -5.1774 1.8086
6.5841 0.6577 4.0301 -1.2070 -0.4567 1.7089 2.2182 -1.7999 1.3538 1.6962 -1.3975 -0.4207 -2.1522 -3.3991 -3.1479 -2.8001 -3.4382 -4.1803 -2.0171 -9.1576 -4.8325 -6.5134 -3.2512 -8.7104 -7.1008 -1.4182 -6.3774 -10.0047 -9.6915 -3.6893
4.6273 0.7022 1.1091 -0.4442 0.1048 3.1463 0.7454 1.7544 1.9858 2.5703 3.4840 -1.1027 -2.6634 -4.1143 -2.9324 -3.5095 -5.2987 -4.9285 -3.0815 -10.4046 -6.2567 -7.8697 -4.2508 -8.6113 -7.8352 -3.1392 -6.4230 -8.8832 -8.5163 -5.0009
3.5889 1.2713 1.2034 -1.0725 0.8959 2.8289 1.1324 3.3814 1.7952 3.6951 6.9725 2.1777 -3.9595 -3.4575 -0.1340 -1.1289 -5.1388 -3.3128 -1.1341 -8.0734 -4.6547 -6.8333 -2.9430 -5.3628 -4.5073 -1.7504 -6.1664 -5.4455 -4.5197 -1.1372
4.7576 2.3219 3.0504 -1.4498 1.4366 2.4336 1.5198 2.3623 1.4174 4.0339 2.2378 6.8994 -3.3844 -1.7426 3.7139 -0.0760 -2.6904 -0.7736 2.4181 -2.5008 -1.1567 -4.2088 -1.0022 -0.6571 0.7287 0.9002 -4.3349 -2.1079 -0.3810 4.0549
5.5994 3.4429 5.2776 -1.3687 1.1200 3.0089 3.0908 2.1563 1.3561 4.0061 -2.4956 10.4084 -1.7178 -0.5468 2.4997 0.7589 -0.7504 1.0263 4.0345 0.3196 1.7738 -1.5989 -0.1459 2.0923 4.9907 3.5056 -0.1483 0.8384 3.1919 8.6552
6.6077 4.3463 8.0498 -1.0363 0.1059 4.2761 5.4856 2.8837 1.3515 4.6929 1.4752 9.8792 -1.1478 -0.9349 0.0054 3.0064 -1.5137 0.5209 3.5877 -1.5213 1.8179 -1.4470 -1.4500 0.0834 4.2372 4.5342 0.1170 -1.8232 0.5239 7.7090
9.8209 4.8166 9.8734 0.0898 -0.9318 5.4693 6.0070 4.1966 1.2982 5.7756 7.9654 5.1361 -0.4698 -1.4576 5.2310 4.1481 -3.0024 -1.5148 4.2734 -2.4176 -0.3926 -3.5796 -3.0249 -3.6497 -0.6820 2.5098 -5.9867 -9.7746 -8.1557 0.4255
11.8024 4.5677 9.2747 1.6973 -1.2791 5.2177 6.1385 6.3574 1.6819 5.5159 7.9153 2.3468 1.0189 -0.6361 10.8193 4.4735 -1.9863 -1.3413 5.9057 -0.4320 -0.7042 -3.6982 -1.1892 -3.6665 -1.7347 0.9437 -9.2176 -11.4256 -10.3207 -1.5192
9.2074 3.6644 6.7061 3.5901 -0.7717 3.6483 7.8977 6.8720 2.9425 3.1529 2.5114 5.0614 1.6545 -0.0758 4.5442 5.2673 0.6006 1.6179 4.5621 -0.9801 2.0076 -0.5909 2.3019 -1.6118 2.3966 3.1963 -4.0505 -4.8145 -3.3941 5.4878
6.1482 2.6751 3.4110 5.5313 -0.0778 2.9121 7.9281 4.4793 4.2395 0.6464 -1.1960 7.6179 0.9617 -1.4477 -4.3211 3.8552 1.1290 2.8529 0.5147 -5.6406 3.0252 0.7152 2.0938 -2.5243 3.6160 4.0132 0.8043 -2.1011 -0.0971 8.5216
6.6841 1.9250 1.2327 5.7249 0.2821 3.5336 4.5645 2.1711 4.3009 0.3161 2.9381 5.0371 -0.3733 -3.3164 -1.7717 1.4120 -0.8449 0.0856 -1.5504 -8.5306 -0.5205 -2.4104 -0.9632 -4.8963 0.3407 -0.8777 -2.1260 -5.3681 -3.1733 3.5476
8.3193 1.5085 1.1628 4.1873 0.5996 3.7192 2.7013 2.0491 3.8774 1.0894 11.6897 1.2461 -1.3384 -3.8424 3.6688 3.1037 -2.2067 -3.0093 -0.4990 -6.5381 -4.4894 -5.4673 -1.6735 -4.5934 -0.9244 -4.5101 -6.6556 -4.9732 -3.1191 1.4136
8.4207 1.9372 2.2760 3.9142 1.1820 3.1042 5.1518 3.1090 4.4727 0.9468 10.5337 1.4867 -0.5099 -3.0243 0.6536 6.0733 -1.2820 -2.6813 1.4107 -3.0201 -4.2877 -4.6328 0.2597 -2.1344 1.9413 -1.3591 -5.7539 -0.6750 1.0252 6.4307
7.9783 3.2241 4.1784 5.0691 1.7807 3.6454 7.4326 3.6428 5.1578 1.5722 -1.0325 3.7788 0.9971 -1.5487 -1.7804 4.5583 0.0555 -0.5587 3.6523 -0.6304 -2.1393 -2.8177 1.3240 0.3242 5.3114 2.0651 -3.9061 -0.1375 2.5913 11.3650
7.6177 4.1085 6.1325 4.4995 1.9605 5.9163 5.2523 2.7005 4.1425 4.6753 -1.4448 4.0709 0.2382 -0.2739 3.6472 2.4825 -0.1900 0.0861 5.5601 0.9175 -2.0004 -3.4086 0.8572 2.0142 6.3441 0.7387 -5.7070 -2.8196 1.2226 10.3925
6.9324 3.7964 5.8138 2.3301 1.5078 7.8384 0.8933 1.8227 2.2122 7.4093 11.7118 3.4026 -2.1095 0.0586 7.1105 4.0417 -1.2916 -0.0339 5.4671 1.9497 -1.9084 -3.9651 0.8515 2.5854 5.6884 0.0485 -5.5298 -2.5968 1.1214 6.1799
6.4774 3.0915 4.0426 2.0159 0.7137 8.1206 -0.9626 3.3058 1.6469 7.0566 14.9382 3.4303 -2.7222 -0.4248 5.2402 4.8333 -1.7812 0.7492 4.6489 3.1727 0.5548 -1.9485 1.8250 2.6883 5.7504 3.1360 -0.4100 0.7178 2.8986 4.9351
6.7689 2.8524 4.0063 4.0733 0.3108 7.4409 0.3758 5.3055 2.8564 5.0608 7.3645 2.6053 -0.7855 -1.0915 6.5809 3.7238 -1.3871 1.5606 5.0918 4.8841 2.5548 0.2574 2.4797 3.0931 6.7243 5.5704 3.2832 3.4278 4.5132 7.2152
7.3338 3.0406 5.0108 5.6658 0.5131 6.2508 2.7832 5.1101 4.1307 3.4952 7.6392 1.7407 2.0500 -1.2453 9.3157 5.4217 0.1551 2.7406 5.6184 5.3763 3.1906 1.4319 2.5703 3.3376 7.1822 5.9229 4.4114 5.2702 5.7290 8.9782
7.7014 3.3588 5.1894 5.3290 0.4665 4.5650 5.5828 5.0546 4.1626 2.5381 9.9914 3.5923 3.7039 -0.6774 5.2067 8.4843 2.5613 5.4183 5.2452 3.9452 5.3556 3.5590 3.3204 3.6896 8.3311 6.8977 7.8640 7.3940 7.7038 10.8262
7.6991 3.3993 5.6005 3.8112 -0.3710 2.9314 8.2571 6.8519 3.1456 1.9694 2.0021 6.1263 2.5623 -0.5393 -1.7670 8.0320 3.3909 6.7039 4.4558 1.5257 7.2070 5.0714 4.4392 4.3179 10.7419 7.8611 9.9642 7.8568 9.3943 15.2055
6.8210 2.5379 5.8740 2.0790 -1.2191 1.9275 7.9516 6.5137 1.6448 2.0062 -4.5854 5.5950 -0.6419 -1.7606 -3.4832 4.5978 0.9508 3.5917 2.5296 -2.2763 4.2195 2.2646 3.6889 2.6962 9.8113 6.6292 4.5539 4.5284 7.6264 17.2887
4.6935 0.6111 3.4105 1.0335 -1.5179 1.3067 3.3273 2.5621 0.1086 2.5922 -2.9074 2.3936 -3.1120 -2.9234 -0.7209 0.0385 -2.6049 -1.4429 0.1215 -6.2355 -1.7873 -2.8189 0.7426 -1.7277 3.8036 3.6909 -2.2649 0.2560 2.9930 12.7331
2.6252 -1.2734 -0.8432 1.1032 -1.6854 0.5469 -1.7341 -0.0331 -0.8026 3.0054 -3.1542 -1.6728 -3.6550 -2.5153 2.0819 -3.7732 -4.1707 -4.5161 0.3693 -5.8350 -5.6657 -5.0779 -1.8227 -4.0236 -0.4947 0.1577 -1.5607 -0.2218 0.7722 6.7697
2.9432 -1.6513 -3.0700 1.3105 -1.4912 0.1670 -3.2575 0.7939 -0.8757 2.9940 -1.6358 -5.5003 -3.7126 -1.7109 3.1254 -2.7041 -3.5443 -5.1789 2.9701 -1.7391 -6.4838 -4.4626 -2.4735 -1.8330 0.4437 -3.3311 3.3135 1.6458 1.8298 3.3512
5.4623 -0.8008 -2.5211 0.5108 -0.2881 0.5432 -2.3894 1.2632 -0.7402 3.3684 8.6666 -6.6811 -4.1528 -1.8531 2.6681 1.7326 -2.4777 -4.5225 3.9947 -0.9047 -5.9058 -4.0738 -2.0963 0.1562 1.1656 -5.1959 3.7098 1.0900 1.6420 0.4609
7.0334 0.0532 -1.2545 -0.2471 1.2843 0.5945 -0.7451 0.3342 -0.6385 3.9214 12.6861 -3.4784 -3.9272 -1.9838 0.6687 2.7603 -2.0581 -2.9809 2.4721 -4.3178 -4.3901 -4.2014 -1.6972 -1.2594 -0.7025 -4.0125 -1.3929 -1.2530 -0.3243 0.0835
6.1233 0.9760 -0.4283 1.5039 2.2302 0.0440 2.6934 0.7469 0.2448 3.2322 2.8799 1.1121 -2.5839 -1.4743 -3.4181 0.8502 -2.2019 -1.2776 0.4582 -6.4773 -2.4693 -3.9884 -2.1054 -3.9389 -2.1008 -0.8353 -6.7947 -3.5280 -2.5244 2.9344
4.8316 1.8482 -0.3749 4.9516 2.2513 -0.4610 5.8034 1.6256 2.1133 1.8843 -4.5317 1.8693 -0.8984 -1.2352 -5.9316 0.0885 -2.1895 -0.3653 -0.9560 -6.9244 -1.3262 -3.9875 -3.7745 -6.0816 -3.6357 1.2910 -8.3972 -7.2828 -6.5201 2.0526
4.6598 1.2247 -1.3255 5.2186 0.9932 -1.3640 3.7709 0.5988 3.2042 2.0506 -4.4073 -1.0469 0.4630 -1.1216 -1.9929 -2.0144 -1.3109 0.0016 -1.1553 -8.2558 -0.7479 -3.7982 -4.6436 -6.9659 -5.9192 1.0662 -6.7812 -10.0301 -9.7044 -1.9397
3.9178 -0.5920 -2.9065 0.9974 -1.1362 -2.1001 -2.2798 -0.0215 2.0874 3.7431 -5.3451 -1.4144 0.1734 -0.2388 3.6070 -6.0471 0.2127 0.5818 0.4764 -8.2886 0.1654 -2.5279 -2.2184 -4.8885 -4.3663 0.7639 -6.0772 -6.9549 -6.1064 0.6718
1.8069 -1.1400 -4.1168 -2.1768 -2.2989 -1.1824 -5.6119 0.9791 0.2942 4.9783 -3.4654 2.9687 -2.1528 0.7850 2.3839 -5.4454 1.3947 1.1641 2.4025 -5.8477 0.6351 -1.5924 1.4974 -0.9295 1.5447 2.0044 -8.2871 -2.0836 0.8471 8.6538
0.3672 0.0243 -3.5046 -1.0666 -1.7248 0.0291 -3.4089 0.2610 -0.1006 4.6492 3.5399 5.6531 -3.4485 1.0027 -3.4639 -0.0204 1.8542 1.2496 2.2603 -4.7748 -0.3563 -2.2460 2.3400 0.6302 5.2325 3.1431 -10.4218 -2.1362 2.6776 12.2884
0.4704 0.7599 -1.2380 0.2991 -0.8209 0.2134 -0.2638 -1.3531 0.2800 3.5706 5.6253 2.9192 -2.2525 0.8681 -6.4369 2.4402 2.0948 0.9505 0.8896 -5.1592 -1.5927 -3.0195 0.6577 -0.5730 4.0328 2.9997 -8.9982 -3.6076 0.7922 10.2944
1.5767 0.3522 -0.2171 -0.6482 -0.5931 0.9763 -0.1932 0.2698 0.3037 3.2984 5.7105 0.4413 -1.7327 0.8745 -5.4821 1.9200 2.2122 0.1553 0.7977 -3.1387 -2.1226 -3.0799 -0.0244 -0.8221 1.7432 1.3557 -5.1857 -1.4011 0.9629 5.9531
3.6875 -0.0057 -2.0457 -0.7590 -0.4480 1.4996 -0.7131 2.9991 0.6120 3.7720 10.4479 0.9902 -2.9622 0.3441 -3.5639 3.2166 1.3977 -1.7823 1.3794 -1.1452 -3.5603 -3.9218 0.6158 -0.0818 0.6093 -3.0028 -3.4980 -0.2546 1.1644 0.9410
4.7955 -0.4129 -5.0118 0.7161 -0.0059 -0.5512 -0.6759 2.7863 1.1285 3.7232 6.3536 -1.1970 -3.3951 -1.1054 -1.4597 1.3225 -0.7412 -4.6684 0.7065 -4.0062 -6.5141 -5.8858 0.1701 -1.1470 -0.3253 -8.8706 -5.1378 -3.6096 -1.2200 -0.8739
2.8389 -1.4759 -7.1686 0.2439 0.2001 -1.9815 -3.9363 1.3461 0.4856 3.5817 -7.2955 -6.8567 -2.7917 -2.4725 0.7262 -7.0557 -3.1863 -6.7564 -0.5224 -8.4449 -8.7838 -7.3316 -1.7980 -3.2696 -1.7365 -11.9269 -6.9722 -6.0466 -2.7849 0.6973
0.9372 -1.8053 -7.4691 -2.2164 0.0215 0.2118 -8.5575 0.7932 -0.8208 3.9998 -7.3157 -8.0842 -2.9879 -3.0394 0.4471 -11.2009 -4.4844 -6.4209 -1.1758 -9.1906 -8.6153 -7.3322 -3.6153 -4.0969 -2.9746 -10.1076 -7.8987 -5.5804 -2.6081 0.3303
2.2079 -0.7430 -5.5106 -3.6259 -0.0932 1.6254 -7.9216 -0.1143 -1.0523 3.4803 2.8768 -2.7343 -4.3067 -3.4563 -2.7234 -6.6093 -4.4167 -4.5395 -1.5879 -7.7727 -6.4278 -6.2149 -3.9314 -3.4493 -2.4988 -5.4763 -8.5764 -5.6963 -2.8455 -0.5240
3.8135 -0.2379 -2.8803 -3.9538 -0.0322 -0.4044 -3.9271 -0.8749 -0.4590 1.7775 0.2460 2.3289 -5.7434 -4.1460 -4.0917 -3.6260 -3.9727 -3.4177 -1.6652 -7.0661 -4.0960 -4.5654 -2.5674 -1.7937 -0.2089 -1.5491 -6.6904 -4.8374 -1.6082 2.8777
3.3485 -0.7830 -2.2617 -4.1250 0.0510 -1.6446 -2.4612 0.4988 -0.4784 0.8774 -6.9708 3.6862 -5.9186 -4.7015 -3.2540 -4.8203 -3.5623 -3.0561 -1.2528 -6.1884 -3.0340 -2.9031 -0.8027 0.1393 1.4733 -0.3332 -1.6784 -0.9323 1.9019 5.8669
3.5093 -0.5420 -4.2593 -3.4977 0.1405 -0.8763 -2.7758 2.3004 -1.2134 0.7299 -2.2873 3.7576 -4.4645 -5.2023 -5.4821 -3.2420 -2.8897 -2.0592 -1.1555 -4.9263 -2.7573 -1.9337 -0.7725 0.5785 1.1213 -1.6476 0.3931 0.3643 2.4716 3.0790
5.8668 0.3031 -6.4991 -3.0371 -0.0217 -1.0830 -3.4903 1.4515 -1.7079 0.3080 3.8558 2.9118 -3.1599 -5.8196 -7.6916 -1.2130 -2.5417 -1.4089 -1.3449 -5.1154 -2.8292 -2.4497 -2.8201 -0.7783 -0.4155 -4.5959 -3.5602 -4.2344 -1.8286 -1.8351
7.6694 -0.2033 -6.2106 -4.0546 -0.8448 -1.3445 -6.2174 -1.3149 -1.4778 0.9171 1.9205 1.0555 -3.2848 -5.4752 -2.5845 -4.4853 -2.7936 -2.2129 -0.8909 -6.2177 -3.4135 -3.6337 -4.3971 -1.8046 -2.1543 -6.9278 -5.9907 -7.3900 -4.7141 -4.2729
7.0669 -1.6530 -4.0521 -4.3418 -2.0028 -0.0951 -8.2171 -2.8457 -0.7034 2.7234 -2.2364 0.9322 -3.5312 -3.3034 3.5415 -8.7256 -2.3022 -2.8397 -0.4304 -6.6187 -3.7917 -3.8206 -3.8263 -1.8064 -2.9607 -6.1443 -3.0988 -4.4799 -2.5269 -2.9093
5.6874 -1.8168 -3.1466 -1.7285 -2.4020 0.1744 -4.9955 -1.1994 0.1808 3.1549 -5.7686 2.2194 -2.8608 -0.6666 1.1170 -7.9755 -0.9484 -2.5903 -1.2209 -7.3108 -4.2881 -3.9091 -2.9214 -2.2866 -1.7929 -4.4999 -4.1317 -2.5262 -0.2476 2.2637
5.3365 -0.3403 -3.0180 1.2680 -1.4366 -0.6534 0.9491 2.6595 0.2925 1.9893 -7.3293 2.1581 -2.1952 0.6746 -4.4766 -3.9037 -0.2822 -2.4652 -2.1548 -8.3739 -5.3561 -4.6593 -3.0746 -2.6632 0.5830 -5.1600 -10.1882 -4.6673 -0.5655 7.4839
5.7646 0.9987 -0.9445 1.1306 0.0693 0.4515 3.6791 5.0354 -0.8082 1.5975 -3.1262 2.2145 -1.8174 1.0254 -5.7889 -0.6634 -0.0853 -1.4688 -1.6698 -7.5045 -4.0727 -3.3303 -2.7204 -1.1761 2.1000 -4.6888 -7.3261 -3.1449 0.8611 7.7763
5.6452 0.8871 0.8297 -1.0953 0.6206 2.1114 1.8352 3.8111 -1.6065 2.3567 3.0710 3.6946 -1.0926 1.3100 -4.4622 0.1509 0.5836 0.8419 -0.4497 -4.7228 0.1210 0.1406 -0.9760 0.8197 1.5281 -0.9518 3.8312 2.7385 3.9947 3.6239
4.4457 -0.1584 -0.4289 -1.8712 -0.1775 1.2399 -1.2834 2.0364 -0.6089 3.4060 2.9128 3.8170 -0.6234 1.4074 0.4597 -1.4784 0.8599 1.8709 1.0376 -2.1432 1.6613 1.0740 0.7832 1.5376 0.0285 0.2457 5.9197 3.8931 3.6371 0.2500
3.2930 -0.4586 -0.8759 -0.5702 -1.1356 0.0233 -1.5492 3.3984 0.8122 4.6333 -2.6347 2.7775 -0.9391 1.1901 8.5082 -3.4820 0.4682 1.3624 2.6654 -0.9087 -0.7362 -1.0790 1.5496 1.7024 0.0502 -1.9987 -1.5419 0.0494 1.0189 1.6282
3.1170 0.7751 1.3646 0.7585 -1.2300 1.0481 1.5128 6.3145 0.8061 5.0453 -1.8453 3.2849 -1.0768 0.7330 8.2886 -1.5826 0.4066 1.6958 1.9310 -1.7305 -1.8134 -2.4281 1.1821 1.1733 1.2349 -0.5469 -6.0436 -2.3830 0.0019 5.2734
3.1069 2.0848 1.0077 0.8562 -0.8981 2.0962 2.6718 6.6569 0.1373 4.1130 10.1842 3.1082 -0.5772 -0.2427 -1.0266 3.3850 0.1788 1.8092 -1.6267 -4.0722 -1.7190 -3.1528 -0.6784 -1.0316 0.2798 3.3603 -10.6933 -5.2293 -2.2892 4.7882
2.7373 2.1215 -2.0837 -0.0733 -0.7037 1.5180 -0.5396 4.3397 -0.0167 3.6066 20.0732 0.4517 -0.1433 -1.2743 -3.3982 4.7156 -0.9046 -0.1055 -3.5855 -5.3464 -4.0154 -4.9898 -3.4488 -3.1923 -2.7308 2.2297 -20.3097 -10.6392 -7.1378 0.4643
2.3407 1.6486 -1.1245 -1.3318 -0.5534 0.7734 -1.7615 2.7080 -0.1584 3.7243 15.9037 -0.6937 -0.5120 -1.4833 1.2830 2.1894 -1.6525 -1.7384 -2.7388 -4.8207 -5.4715 -5.3146 -5.0838 -3.6505 -3.7163 -0.9485 -22.2994 -12.0550 -8.6830 -0.8865
1.3827 0.8566 2.1294 -2.4878 -0.9348 0.0544 0.6783 2.4666 -0.6458 2.6947 3.9625 -0.0373 -1.9123 -1.7180 -1.5061 -0.0229 -1.6551 -1.6782 -2.9894 -5.0714 -3.5807 -3.1970 -5.0753 -4.1649 -2.6241 -0.0112 -12.0553 -7.6451 -5.7276 1.3945
0.4566 -0.7419 0.1725 -3.0675 -1.8587 -1.0726 -0.7585 1.9774 -0.7548 1.7628 -5.0254 -1.6669 -3.0430 -3.1138 -7.5063 -3.7912 -1.9346 -1.7063 -4.5821 -7.2056 -2.7552 -2.5246 -5.4635 -5.9603 -3.2918 1.9293 -5.1211 -4.9161 -4.1470 2.4404
2.1453 -1.1236 -3.1175 -1.8917 -1.4272 -1.0821 -3.9143 1.7146 -0.0790 2.8776 -6.5132 -2.5337 -2.3662 -4.1572 -5.9147 -7.2110 -2.0404 -1.4154 -4.4343 -8.7848 -3.3117 -3.7002 -6.6046 -6.9538 -4.9025 2.9012 -7.3097 -5.6648 -4.8562 2.7255
5.7994 0.6446 -0.6278 0.5277 0.6547 -0.0618 -0.9488 1.8448 0.8696 4.1784 -3.2328 1.2939 -1.1572 -3.0307 -2.1830 -4.4538 -1.0531 0.5213 -2.5046 -7.3670 -0.7809 -2.9078 -5.8513 -5.2605 -3.7081 6.3818 -7.2276 -4.5079 -3.7521 4.9097
7.2283 1.3019 2.1001 1.3016 1.5275 -0.2750 1.1174 1.0630 1.5137 4.3126 -4.6101 3.2839 -1.0414 -0.9881 0.9602 -1.8059 0.1885 2.0826 0.0992 -3.2181 2.8346 -0.2773 -2.6128 -1.8225 -0.5220 10.2955 -1.7088 -1.2828 -1.0231 7.0180
6.0105 0.1873 -0.2839 0.1989 0.2903 -0.7886 -3.6457 1.3977 1.7700 4.4867 -8.7433 -0.2883 -0.8370 -0.1727 6.3459 -4.3965 0.7619 1.9263 2.4238 0.2434 2.9771 0.9128 -0.2508 0.4563 1.6867 9.8547 0.6885 -0.3012 0.1708 7.3822
5.8270 0.6878 -1.6176 -0.0406 -0.6656 0.8306 -4.7375 3.9870 1.5488 4.0657 -3.2598 -1.0565 -0.1985 -0.6992 5.8520 -3.3447 0.5468 1.6171 1.9933 -0.6081 1.3068 0.1880 -1.1519 -0.4156 2.4229 6.6727 -2.4054 -2.1140 -0.5845 7.1342
7.1545 2.3825 1.2574 0.4668 -0.3445 2.6379 0.6771 4.1131 0.7552 2.1862 5.2490 3.8355 -0.8062 -1.5879 -1.8355 2.0704 -0.2650 1.4694 -0.6218 -3.3349 0.7155 -0.7215 -3.3936 -2.1991 2.4064 4.4184 -4.1196 -3.3702 -1.1973 6.3915
7.0408 2.1480 2.9750 -0.3062 0.2423 2.1350 2.1170 1.0293 0.0274 0.9072 3.9379 5.3479 -1.8710 -2.3440 -4.2489 2.6603 -0.3725 0.8507 -1.4278 -2.5672 0.4843 -0.7276 -4.1940 -1.5271 2.3250 3.2556 -0.3227 -1.2776 0.2873 5.0665
5.0635 0.8408 1.4559 -1.3544 0.8068 1.2468 -0.9671 0.7859 0.0578 1.2419 1.3325 0.3993 -1.4625 -3.1178 -1.1101 -0.0599 0.7579 0.1512 -0.6915 -0.8161 -0.9455 -0.6684 -4.4432 -0.3543 1.8658 1.1964 2.8191 1.3201 2.0379 3.8357
3.0575 0.5060 -0.5945 -1.3152 1.3024 1.0296 -2.0775 3.6203 0.3735 1.6546 1.0679 -3.5479 -1.1240 -4.1108 -0.2949 -2.5835 0.9100 -1.1625 -1.6189 -4.0547 -3.8728 -2.6660 -6.3653 -2.1506 -0.2913 -2.1674 -2.0106 -1.7145 -0.2896 3.0068
1.2513 0.2467 -1.9442 -1.8548 1.0217 -0.4809 -2.7516 3.4393 0.2728 1.7460 -6.9833 -3.1053 -2.5485 -4.9437 0.3044 -7.9896 -0.9178 -3.6931 -3.7022 -9.4863 -6.8963 -6.3936 -8.8280 -4.9035 -3.1524 -4.0581 -9.7368 -8.1050 -4.8711 3.2514
-0.3989 -0.6866 -2.7651 -3.4940 -0.0188 -1.8638 -5.6045 -0.3071 0.1524 2.2855 -11.5678 -2.9415 -3.4881 -4.9410 2.1237 -11.9500 -2.2458 -5.9257 -4.9962 -10.9829 -8.5358 -8.7212 -9.6979 -5.3356 -4.1472 -4.1442 -11.1554 -9.0349 -5.1488 3.6062
-0.5142 -1.1397 -2.7409 -4.0994 -0.7958 0.0002 -7.4991 -2.3881 0.3989 2.8613 1.7277 -5.1709 -2.2801 -4.0415 1.2592 -8.2686 -1.6909 -6.2389 -5.5003 -9.3868 -8.8922 -8.1606 -9.2934 -4.1367 -3.2337 -5.6848 -7.6857 -4.4750 -1.3358 1.8899
1.0318 -0.6018 -1.5431 -3.3151 -0.7065 2.9411 -5.9895 -0.5982 0.5815 2.4134 13.4099 -6.2508 -1.1437 -3.1283 -1.8407 -3.1223 -1.0713 -4.6723 -5.7234 -8.2620 -7.7444 -5.8808 -8.2375 -3.1316 -1.8415 -7.0704 -4.0789 -1.3938 1.0965 0.1369
2.5319 0.2201 -0.2934 -1.9535 -0.0383 3.5644 -2.5014 2.9936 0.9278 1.0750 7.8469 -4.8130 -1.4731 -2.9876 -4.4489 -2.4650 -1.8699 -2.6318 -5.9637 -7.9817 -5.3003 -3.7717 -6.9604 -2.9593 -0.8430 -4.9384 -0.3916 -1.1356 0.9402 0.8647
3.3222 0.8689 -0.6747 0.2809 0.6905 2.9657 0.3866 6.2968 1.9233 0.4014 0.6525 -3.0436 -1.7399 -2.9677 -4.9206 -2.9521 -3.1750 -1.8313 -5.8891 -7.7610 -4.0608 -3.3243 -6.8280 -3.4044 -0.8185 -2.7221 0.9798 -1.3593 0.2419 2.1070
3.8673 1.0718 -1.1242 1.7400 1.1660 2.7489 0.8956 7.0120 2.5190 1.3279 -3.3927 -1.5475 -1.4888 -2.0670 -2.7745 -4.2181 -3.3106 -2.0296 -4.8882 -7.2835 -4.4208 -3.9433 -7.2477 -3.3364 -0.6382 -2.7510 -2.9333 -1.5534 0.4039 4.5032
3.7468 0.4503 1.0884 0.2606 1.2233 2.5072 -0.7799 3.1634 1.9588 2.5964 -13.5419 -0.4701 -1.6778 -0.9033 -0.8705 -8.1122 -1.9028 -1.7817 -3.7130 -5.9576 -3.6264 -3.4979 -5.9046 -2.0107 1.4874 -1.6058 -6.1929 -0.0751 2.8450 10.1047
2.4195 -0.4732 3.7081 -1.8740 0.8594 2.5795 -2.3787 -1.0601 1.3926 2.8660 -16.3274 -1.1426 -1.6372 -0.4828 -0.6583 -8.9084 -0.0037 -1.3487 -3.0358 -3.8499 -1.5708 -1.6487 -3.5123 -0.2265 3.6884 -0.1176 -1.1546 4.3170 6.7515 12.2832
1.0574 -0.5177 3.2261 -2.1768 0.3590 3.0524 -1.9999 0.9287 1.4276 2.7378 -2.4137 -2.5432 -0.4567 -0.4667 -0.0746 -4.1047 1.4719 -0.9614 -2.2823 -2.8431 -0.2361 0.0625 -2.6621 0.6627 2.6135 -1.5804 6.7917 6.7906 7.3475 5.8028
1.1687 0.3734 1.5542 -2.6181 -0.0538 2.2771 -0.8419 5.7347 1.3643 2.8143 4.8992 -2.3981 0.6015 -0.4661 0.3886 -2.0295 2.4490 0.4527 -1.5733 -4.2321 0.3742 0.3907 -3.7394 0.1733 -0.3574 -2.4602 5.0554 1.9492 2.3000 -0.2813
2.2480 1.3019 1.6139 -4.2607 -0.4627 0.7460 -1.5986 5.1851 1.1494 2.7664 -3.4855 -0.9182 0.2060 -0.4829 -0.0318 -5.3279 2.9203 1.8327 -1.1406 -5.4820 0.4195 -1.0105 -5.8121 -0.5176 -0.9097 0.1557 -5.5890 -5.7983 -3.1189 1.9903
2.9633 2.0169 2.3412 -4.7518 -0.8549 1.0647 -3.3212 1.6485 1.1786 2.6846 -5.6272 0.7999 -0.8570 0.2122 0.1015 -5.5857 2.8585 1.3511 -0.4770 -3.6928 -0.0811 -2.6885 -7.5673 0.1060 1.9862 2.1181 -10.3966 -7.0772 -2.5826 6.8120
3.1561 2.4242 2.0236 -3.5300 -1.0994 2.3478 -2.9737 2.0463 1.3202 2.3344 1.8010 0.9609 -1.1797 1.4068 -0.5032 -1.2676 2.4455 0.5065 -0.3367 -1.3278 0.2155 -2.4912 -7.5739 1.0072 5.0556 1.6294 -3.4595 -2.1303 1.7564 7.9389
3.2351 2.0695 0.9140 -2.1104 -0.9789 2.2024 -1.8403 4.4389 1.5806 1.3461 1.1979 -2.7026 -0.5212 1.0738 -1.9867 -0.9616 1.3896 0.4260 -1.6673 -2.5544 0.4413 -1.7686 -7.4257 -0.5615 4.0448 0.9126 3.3102 -0.4665 1.9032 5.8398
3.7060 1.8428 0.6984 -0.4848 0.1192 1.7435 -0.9918 4.7086 2.1144 0.5534 -5.3878 -6.6432 0.3298 -0.8806 -1.4613 -4.8734 -0.5146 -0.5343 -3.1240 -5.8474 -1.3680 -3.2047 -9.5178 -3.8952 -0.5593 -0.4548 -0.9557 -5.1319 -3.3534 2.6158
4.9397 2.9346 3.0140 0.8915 2.1631 2.1143 2.7303 4.6690 2.2475 0.0343 -4.2309 -4.8485 0.0542 -1.8908 -1.0145 -3.3711 -2.0913 -1.9762 -2.9269 -5.9234 -2.7578 -4.8383 -10.7979 -4.3443 -2.2686 -2.0005 -11.1609 -8.1013 -5.8636 2.3718
5.8733 3.7082 5.8465 0.1289 3.7330 2.6710 6.1096 4.6258 1.3273 -0.8081 3.2451 -1.1920 -1.7078 -1.3623 -3.0057 2.7836 -2.3851 -2.5054 -1.6789 -2.3330 -1.9351 -4.2290 -8.1646 -1.2752 0.6526 -1.3446 -16.7938 -4.8330 -2.1697 5.7238
5.2249 2.3097 5.1606 -1.4148 4.0058 3.7635 2.3662 1.8841 0.2602 -0.8422 8.7988 -2.7272 -2.6697 -0.8328 -3.2158 3.1549 -2.1205 -3.5047 -1.3818 -0.6526 -2.2145 -3.5894 -5.6310 -0.1467 1.1853 -0.2036 -15.0672 -0.7050 1.1893 5.8042
4.2018 0.6395 2.5646 -0.6421 3.6126 4.3107 -2.0019 -0.4684 0.0233 0.0916 8.9667 -4.9696 -1.1134 0.0655 -0.0160 -0.6996 -1.4753 -4.4327 -1.6166 -2.0189 -3.5386 -3.4633 -5.4424 -1.4957 -1.4517 -0.2026 -7.6650 1.5988 1.8502 2.6133
4.7909 0.8091 3.3500 0.6060 2.6451 2.5680 1.5932 2.0694 -0.2666 0.1359 2.8783 -1.6968 0.3343 2.0261 2.7083 0.0787 0.1890 -2.2798 -0.0326 -0.6303 -1.7187 -1.0663 -3.3825 0.5657 0.3836 1.0224 1.5903 4.7729 4.3437 4.2280
5.7770 1.0706 6.3480 -1.1981 0.7207 1.7308 4.1831 5.0680 -1.4879 -0.0117 -5.1766 1.9236 -0.8758 3.0634 4.0293 0.8275 1.5880 0.8489 2.2156 2.9835 1.4942 2.0032 0.0708 4.6804 4.8505 2.9221 5.2320 6.4500 6.8888 8.0701
4.2734 -0.3487 5.9262 -3.6998 -1.0858 4.4019 -2.2415 3.4039 -2.5035 1.3467 -6.2831 0.9678 -2.6175 2.3034 5.4784 -4.6937 1.1274 0.5398 1.9935 2.0270 1.3641 2.0541 0.2192 4.2433 3.7693 2.4336 2.3936 4.3157 5.4195 6.0386
1.2736 -1.4314 2.7183 -2.2804 -1.3450 6.1462 -5.9357 1.7330 -1.9485 2.0760 1.6618 -0.4087 -2.2327 1.9949 5.3823 -6.4895 0.0309 -1.4196 0.0517 -1.8673 -0.6231 0.5514 -1.0589 1.3612 0.3791 0.4010 1.7039 3.5849 4.1478 2.0604
0.7044 -0.3748 2.0101 1.8702 -0.5596 4.0958 1.3156 4.2667 -0.3947 0.4926 7.9293 -0.0442 -0.3055 2.5389 2.2421 0.5170 -0.1699 -1.3931 -1.7584 -2.9801 -1.2760 -0.1585 -0.5647 0.6527 0.6646 -1.1414 4.8662 5.3792 5.3018 2.2067
2.3889 0.8035 3.9604 3.6024 -0.2027 1.7509 7.7021 5.9049 0.5463 -0.6481 2.3229 -0.6197 1.3377 2.0540 -0.1676 3.3753 -0.0386 -0.5008 -3.6479 -2.7249 -1.3871 -0.9900 -0.4803 -0.1185 0.9917 -1.4104 5.1529 4.5554 4.4167 3.6711
2.1714 0.1895 4.3530 1.5743 -0.5787 1.1812 4.3840 2.6421 0.2039 0.1333 -7.3057 -1.1933 1.1982 1.2851 0.8936 -1.7485 -0.1686 -0.4951 -4.6942 -2.5278 -1.3535 -1.7692 -0.7351 -1.1122 0.3499 0.2790 3.2455 3.3321 3.4233 4.9321
-0.6066 -0.7140 2.5291 -0.5779 -0.9205 1.7611 -1.0024 -1.1785 -0.7909 0.6347 -6.0263 -0.1155 -0.7790 2.0250 1.3228 -3.1403 -0.6382 -1.0470 -4.1404 -0.7550 -0.2972 -1.5275 1.1319 0.4058 2.8887 0.8975 3.7791 5.9616 6.6009 6.6459
-2.4924 -0.3175 1.5766 -0.1276 -0.7339 3.7443 -1.4889 -1.1487 -1.4683 0.3568 3.4788 -0.3680 -2.0701 2.9202 -0.7201 0.5722 -1.7307 -2.5335 -3.8996 0.2567 0.0027 -2.0403 2.4424 0.9934 4.6495 -2.9464 3.3345 6.8193 7.8309 4.6251
-2.1164 0.3239 2.6249 1.3683 -0.4142 5.4316 0.1667 0.9500 -1.5594 0.8726 7.6253 -3.2629 -1.3570 2.2728 -0.5987 1.3732 -2.4206 -4.3260 -4.2730 -0.8363 -1.6219 -3.8791 0.9602 -1.5594 1.1292 -6.1490 -0.7331 2.4607 2.9416 -0.7969
-0.6079 0.2068 4.5141 1.7088 -0.5286 4.1381 1.7048 1.8225 -1.3824 1.5954 3.4349 -5.1076 -0.9862 0.9657 1.0694 0.3344 -1.3249 -3.5257 -3.5970 -0.6718 -1.8611 -4.0406 0.1895 -2.0975 -1.3112 -2.3320 -2.7370 -0.3139 -0.3829 -1.1844
1.5825 0.1807 6.4871 1.8663 -0.8177 1.7563 4.4858 1.4230 -0.6767 1.1592 -3.0059 -3.6694 -1.5078 0.0266 -1.5913 1.1200 0.3858 -0.2113 -3.0361 0.0065 1.6060 -1.5847 1.4494 0.0630 0.6108 5.5075 0.5722 1.2526 1.2315 3.8324
3.2175 0.3712 6.9342 3.0467 -0.7627 1.7444 6.0515 1.0658 0.7432 0.6252 -4.5186 -0.8861 -0.6483 -0.3688 -5.7985 1.1415 1.0471 1.9184 -3.9299 -1.6745 5.9662 1.0674 1.9849 0.0345 0.2935 10.9938 6.7408 3.2589 2.2060 4.1143
2.6724 -0.2624 4.4251 3.4900 -0.5031 3.2663 2.5536 0.3470 1.5690 1.1612 3.5301 1.1770 0.6303 0.0926 -4.1209 0.2478 1.4067 1.8239 -3.9813 -2.3909 8.2454 2.9177 1.5352 -0.7433 -2.7047 11.9118 13.8560 6.1098 2.6673 -2.0688
1.7615 -0.9964 1.8565 2.1536 -0.1958 3.6481 -2.3363 -1.4305 1.1184 1.6161 11.9066 2.1499 0.3474 0.9787 0.9100 0.7654 2.2884 1.9674 -2.0534 0.2233 8.8756 4.4868 1.3204 1.7788 -1.1983 10.0089 17.8821 10.4887 6.4519 -3.5770
2.6737 -0.2598 2.9244 1.1452 0.1999 2.7956 -1.7645 -1.7888 0.9704 0.8672 5.5913 2.2387 0.5665 1.3014 1.8917 0.3487 2.7426 3.5300 -0.6168 1.7809 8.9107 5.3441 0.9135 4.6966 3.6447 8.9905 14.1345 11.2671 9.5064 3.5948
3.4822 1.0938 5.8791 1.3146 0.2142 2.0693 3.4499 1.7600 1.6025 -0.5006 -8.0228 2.1737 2.0914 0.9888 -0.7314 -1.7909 2.0500 5.0651 -0.8529 0.2187 8.3935 5.2114 0.3459 4.0217 3.8573 9.5028 7.0754 6.5952 6.4285 7.7334
2.2897 1.1982 6.3993 0.6757 -0.2157 1.9174 5.7219 5.1888 1.1904 -1.4216 -10.4531 2.3313 1.6806 0.4915 -1.8046 -2.6272 0.6633 4.6869 -1.3802 -1.1334 7.0783 4.3074 -0.0516 1.4237 -0.5342 8.0797 4.9979 1.8279 0.6940 1.8764
0.8429 0.4754 3.8664 -0.6334 0.0282 2.5375 2.0379 3.8606 -0.2709 -1.2225 -4.7944 1.4476 -0.7461 0.0035 -0.7122 -3.1091 -0.8679 1.9327 -1.8285 -1.4197 4.1110 1.9114 -1.0747 -0.4547 -2.9136 3.7730 6.0416 0.0870 -1.6421 -4.2133
1.5416 0.8230 1.8386 0.1311 1.2576 4.0985 -0.8515 1.4163 -0.5778 -0.4383 -1.7916 -0.6317 -1.3369 -0.5664 -0.7044 -3.5969 -2.2852 -1.6034 -3.0296 -2.2291 -0.5431 -1.8307 -2.5983 -1.3195 -1.5058 -0.7358 2.1123 -1.0752 -0.9457 -2.5834
4.0522 2.1417 2.8468 2.2698 1.9077 5.3825 1.4525 1.5086 0.4916 -0.2861 0.5637 -1.2237 0.0028 -1.1077 -1.4082 -0.9919 -3.2070 -3.4420 -4.0261 -1.5928 -3.7873 -4.0485 -3.0361 -0.6655 0.8563 -3.2751 -5.6175 -2.5022 -0.2099 1.3048
4.5185 1.9832 4.4985 2.1249 0.9185 5.3076 1.9764 1.0083 1.4619 0.0096 0.3561 0.0237 0.2214 -0.6155 1.2428 0.3160 -2.7694 -2.6188 -2.7377 2.0084 -2.8199 -2.5908 -1.5369 1.6808 2.4108 -2.6934 -6.2849 -1.2527 0.9984 1.8453
0.7783 0.0569 4.2846 0.2681 -0.5736 5.1286 -2.3627 -0.2758 2.2337 1.5678 -5.8774 -0.3186 0.1600 1.1303 5.4910 -4.2728 -0.5011 -0.5304 -0.1337 4.3418 0.1947 0.5686 0.8351 3.3153 2.1708 -0.0294 2.0113 2.0885 2.6621 0.1907
-1.7794 -0.2316 4.4820 0.4420 -0.9034 5.9729 -2.5041 1.5873 2.8524 2.3446 -5.1604 -1.7073 1.9319 2.1125 4.9835 -5.3255 2.1030 0.9363 0.8229 2.9815 1.6985 1.9615 1.7948 2.5637 0.4036 1.3767 5.7063 2.0251 1.6261 -1.9723
1.3366 1.9404 6.0424 2.0852 -0.0758 6.5225 2.6024 4.5720 2.0922 1.1571 6.9718 0.1960 2.7278 1.4068 2.6378 1.8667 2.9955 1.3193 0.8333 2.4622 1.9950 1.0141 1.0372 2.2410 0.3502 1.3202 -0.9551 -1.1594 -0.7748 -2.4588
4.6281 2.7291 5.4233 1.8942 0.5987 5.8175 2.1150 4.4395 0.2452 0.7371 10.7777 3.2741 0.5043 0.9057 5.8282 4.3840 2.6842 1.2966 2.2939 4.8630 2.6591 -0.0090 1.3056 5.0004 3.5203 2.7339 -4.9632 -0.2932 1.4505 1.4622
3.7631 1.5796 3.5281 0.8695 0.7085 5.3443 -2.0338 3.6153 -0.1229 1.7605 1.3522 2.2496 -0.1844 1.5089 8.4966 -0.8358 3.0736 1.6713 3.2706 5.6286 3.2197 0.5080 3.2222 7.7263 6.5265 4.8801 -0.3972 4.2626 6.6699 6.9894
3.0451 2.4571 5.5518 1.8970 1.0682 6.1521 2.1890 5.2558 1.6387 1.7212 -1.8012 0.5054 3.1458 2.0919 1.9868 0.1381 4.0321 2.7419 1.6388 3.7594 3.2088 1.7145 3.7441 6.8496 6.8735 4.3878 1.7807 4.4851 7.0441 8.2556
3.3216 4.9045 9.0975 3.3816 1.6611 6.8956 9.5348 6.8614 2.9140 1.2963 4.2462 3.0964 5.1569 2.1983 -4.4801 7.0058 4.0409 3.6117 0.4021 4.0245 3.0228 1.9399 1.9052 4.4624 5.7027 2.0636 -1.5837 0.2034 2.5514 4.6341
0.8589 4.8174 8.0120 2.9139 1.6112 6.7649 7.1040 6.2644 2.4652 2.5594 5.3975 5.6495 3.0318 1.9940 -0.5246 6.3027 2.9281 3.2040 1.4342 6.3606 2.4834 1.0394 -0.2989 3.0253 3.6016 1.5175 -2.3401 -2.1235 -0.8264 0.1295
-1.5108 3.0411 4.5313 2.6111 1.1711 7.0474 0.4872 5.0206 2.4128 3.6747 3.6736 3.8911 1.7737 1.5382 4.9082 0.6509 1.7150 2.3336 1.8094 5.8074 1.5980 0.3935 -1.7889 1.4791 1.0190 2.6287 -1.1650 -1.7396 -1.5907 -1.8599
-0.2689 2.4869 2.6466 4.1654 1.0573 7.9819 -0.6762 4.0722 3.7869 3.2029 7.2557 1.3006 3.7428 1.3657 3.0825 0.0196 1.0110 2.1548 0.8457 2.7514 0.8500 0.7042 -2.0172 0.0388 0.0697 1.7930 -2.9721 -1.2864 -1.1311 -1.3970
0.4774 1.8362 1.0581 4.8683 0.8205 7.8666 -0.6785 3.6860 4.5342 3.1321 7.8345 0.1664 4.4797 1.6302 1.8887 0.3739 1.0617 1.8585 1.6440 2.2351 0.2086 1.3156 -0.2675 0.7286 0.9403 -1.8076 -2.5089 0.2033 0.5968 -1.2752
-1.4513 0.1729 1.1617 3.3606 0.2728 6.5501 -1.6571 4.4765 3.5016 3.5568 -0.4461 -0.6801 2.0829 1.6776 5.6231 -2.1046 2.0921 1.1737 4.2956 5.3111 0.1407 2.0626 2.3176 3.2919 2.2744 -4.3358 3.8714 3.8042 3.4381 -1.5274
-1.8795 0.0770 5.3383 2.5709 0.5767 6.2400 1.3374 4.7736 2.1646 2.7606 -5.0314 -0.3007 0.0338 1.2985 5.7459 -1.1223 3.2478 1.6574 5.5372 7.6714 1.4928 3.1454 3.3633 5.3149 3.8539 -2.9075 7.3214 5.8792 5.1308 0.0886
0.1293 1.8771 8.8818 4.2354 2.0375 7.7104 5.6100 4.1493 1.6491 1.9100 1.1820 1.5300 0.1891 1.0480 1.4006 3.0912 3.2573 3.3432 4.6266 6.1886 3.7336 3.9619 2.5500 4.9436 3.8265 0.8641 3.7059 3.3270 3.1225 0.7444
0.4299 2.4258 8.1559 6.0456 2.9207 8.7293 5.8450 5.4204 1.5606 2.3525 5.6739 1.9588 1.4975 1.5078 0.8826 3.3475 3.1954 4.6554 3.7894 4.0496 6.0098 5.0251 2.5366 3.5637 1.2794 4.1810 4.5236 1.9438 0.7935 -2.1349
-1.9231 0.7197 7.2071 5.3773 1.9182 8.0337 3.8639 6.0226 1.5288 3.0232 -0.1132 0.4714 3.3025 2.1678 3.0797 -0.0569 4.6209 5.1615 3.8848 5.1315 7.6063 7.3540 4.8702 4.6570 1.1596 5.0814 14.6273 8.4065 5.2185 -2.2487
-2.6308 -0.7123 8.3574 2.9070 0.0834 7.3043 1.7401 1.4982 1.4303 3.8966 -5.8836 0.6188 4.1378 1.5591 3.6932 -2.1582 5.3400 4.8394 4.0239 6.8854 6.9553 8.6178 6.6369 7.7454 5.6460 2.6817 19.0915 15.2758 12.8896 3.7347
0.0655 -0.2616 8.1643 1.6047 -1.1342 7.1796 -0.4960 -1.5956 0.9192 5.2832 -1.7729 3.6467 2.1984 -0.0123 7.0516 -1.5114 3.2082 3.5381 4.2073 6.6446 4.6053 6.5301 5.2725 8.6915 8.1441 0.2212 10.6679 12.1200 12.5675 6.8098
1.6385 0.5856 5.8885 2.1833 -2.0515 6.3723 -0.9720 3.0710 0.0984 5.1842 5.2810 4.8652 -0.0522 -0.2847 11.9264 0.3892 1.3332 2.5760 4.4320 6.4004 4.0156 4.2742 2.9895 6.8237 5.2001 1.7470 4.4394 4.9847 5.5592 2.1265
0.1555 0.7768 5.7503 2.2589 -2.8998 5.4229 1.1879 7.3819 -0.2118 3.2021 5.6418 1.7634 1.5784 1.1698 9.0976 1.6692 2.6517 3.3464 3.5691 6.0913 5.8082 5.2281 2.1013 5.1049 2.6812 4.4577 8.2250 4.1193 2.9006 -1.3210
0.4821 1.5555 8.4196 1.6517 -2.4871 5.4988 4.5506 5.1581 0.4153 1.9056 3.6274 0.1872 5.4254 2.7240 1.2054 3.2509 4.6484 4.8286 2.1040 4.3871 6.8595 7.1923 1.8405 4.8737 4.5166 3.9649 10.5731 6.5424 5.6635 2.2007
3.5151 2.7257 9.1192 2.7675 -1.1494 5.1256 7.7275 3.2779 1.2612 1.4722 4.6324 3.8751 6.3706 3.6224 -1.6386 6.3586 4.7367 5.2126 1.9345 3.6432 5.9354 7.2402 1.5045 5.0929 6.9426 2.4741 7.0269 6.8146 7.3419 6.6527
4.0396 2.4700 6.9369 4.5588 -0.8979 3.3912 8.9852 4.6882 1.5607 0.2185 2.6213 7.2850 4.3248 3.8184 0.0254 7.1380 4.0007 4.4041 2.7311 4.5675 4.4233 5.8633 0.9474 4.7430 6.4046 2.8841 4.4097 6.0031 6.4052 7.3278
2.2491 1.7376 6.2323 4.0288 -1.2976 2.9757 6.8987 3.6348 1.6541 -0.2369 -1.2609 5.9530 2.7423 3.2207 1.7345 3.8934 2.9011 2.7452 2.9441 4.6432 2.6603 3.7354 -0.4253 3.8966 4.0127 3.5769 1.6666 3.2177 3.5014 5.1841
2.5590 2.3634 7.3285 2.6329 -0.5619 5.3649 3.3843 0.7926 2.0491 1.8400 3.3714 2.0419 1.8885 2.4141 3.7254 1.9928 0.4108 -0.1938 2.6394 3.7270 0.0225 0.5849 -1.7503 3.0414 1.7915 2.6116 -4.8344 -2.9566 -1.4285 0.9746
3.9688 2.9147 7.0262 3.2184 0.2991 7.1124 2.5493 1.3575 2.4242 3.6760 8.7651 -1.6557 0.5471 1.9753 4.7333 2.8221 -2.1010 -3.3183 2.7844 3.2564 -2.5049 -2.1210 -1.2517 2.6659 0.8372 -0.4337 -8.8001 -7.0644 -4.6205 -2.6345
3.9741 1.9665 6.5357 4.3265 -0.2765 5.6053 4.9434 2.2541 2.3281 3.1035 1.5816 -2.9124 -0.3037 1.8779 3.5272 2.3447 -2.3192 -4.0568 3.9107 3.8170 -2.7850 -2.1417 0.6042 3.4655 1.5475 -3.7929 -5.0001 -4.7999 -2.8465 -2.4368
4.4107 0.8782 7.8785 3.8701 -1.1448 4.0175 6.2511 -0.6635 1.7250 2.4454 -5.3755 0.0018 -0.4452 2.0049 2.9168 1.3207 -1.0826 -2.3155 5.1724 5.2293 -0.6901 0.1349 1.7902 4.8138 2.1203 -3.5012 1.6400 -0.5195 0.1393 -1.8762
6.2100 0.5952 8.2140 3.3935 -0.9984 5.4754 4.3119 -2.1586 0.9830 3.3340 2.2612 4.0069 -1.2493 1.8296 3.5164 2.3341 -0.4526 -0.6056 4.7626 5.4345 1.1477 2.0556 1.6755 4.6060 0.6209 -0.1026 4.4445 0.6023 0.0412 -4.6800
6.7328 0.6741 6.3221 4.3952 -0.4375 7.4901 2.8903 1.4535 0.7451 4.1013 10.5065 4.3307 -1.8576 0.8335 2.4023 3.2201 -0.2662 -0.2728 3.0261 3.2335 1.1538 2.1857 1.1653 3.0311 -0.8382 1.1611 2.6163 -0.4730 -1.1284 -6.0786
4.8713 0.8713 5.6848 5.0500 -0.3146 6.8222 4.0531 3.8215 0.9840 4.0079 3.9164 2.0611 -0.5414 -0.1995 0.1121 1.5067 0.2761 -0.6050 2.4380 1.4379 1.0823 1.8702 1.2614 2.7817 0.8427 0.1315 0.9871 0.1216 0.5082 -1.3844
2.9812 1.0508 7.3446 3.6419 -0.7112 4.7245 4.7005 1.4791 1.1581 4.2850 -7.8057 1.8797 1.3937 0.0997 0.7857 -1.0020 0.8876 -0.2448 3.5683 2.3116 2.7226 2.7426 2.3467 4.4409 4.4876 0.9703 3.2889 3.4723 4.5985 5.4954
3.3902 1.8022 9.3941 2.1600 -1.1720 3.9471 5.5309 0.7609 1.7634 4.4418 -8.7008 5.2236 2.6245 1.9652 3.6250 0.2543 1.8851 1.9216 4.8436 4.2516 5.6661 4.2686 3.8723 6.1724 7.0026 4.3897 5.6974 6.3347 7.3945 9.2362
5.0921 3.5930 10.9155 3.1487 -1.1690 4.3585 10.0419 4.5785 3.3749 2.8614 -0.6819 8.7094 5.2829 4.1354 2.8243 5.7849 3.9990 5.2008 5.4995 5.2008 8.7156 5.5098 5.3035 7.2392 7.3903 8.7725 4.9606 6.9747 7.6480 9.9485
4.9026 4.0233 10.2832 4.6122 -1.0234 4.0613 13.0422 7.1648 4.6047 1.2037 4.1676 8.1316 9.4074 5.0211 0.5225 8.3584 5.8279 6.8986 6.0329 4.7646 10.1334 6.8185 7.3749 8.2843 6.1956 11.6989 7.2483 9.4359 9.0014 9.3447
3.0323 1.3262 7.1100 3.1353 -1.3504 3.1057 8.2923 5.9291 3.9809 2.3799 3.0356 4.9881 9.4705 4.4259 5.3115 3.9711 5.3158 5.9581 7.2897 3.8545 8.8343 7.7573 10.3187 9.3725 4.7094 9.9721 15.3054 14.8212 12.7269 7.4655
3.5264 -1.1192 4.9591 0.9322 -1.5591 2.9348 2.7601 4.5199 2.7942 4.2937 0.8808 4.1095 4.1789 3.2955 12.1477 -0.0791 3.4936 4.6593 9.0690 3.6667 6.8720 6.9598 12.0167 9.4091 4.4128 5.5094 19.1373 16.1735 13.6476 5.3981
6.1145 -0.4084 4.7752 2.1279 -1.0027 2.7858 4.7132 4.5255 3.0011 2.7666 -0.4883 3.5217 1.0136 1.9932 7.1159 2.2623 2.8510 4.4809 9.0005 3.7140 6.2224 4.9564 10.7694 7.5768 4.8925 3.8350 13.3628 11.0549 9.6343 5.0759
5.5323 0.7829 3.6159 4.2695 -0.5298 1.4788 8.4986 4.8010 3.7195 -0.2108 -1.2560 -1.2514 2.9896 0.9073 -4.5829 5.6939 3.1959 3.7523 6.0455 3.1465 5.0901 3.2510 8.0760 5.2469 4.4357 3.8857 6.6594 6.8617 6.2201 5.3389
1.6031 -0.1813 1.9183 2.9462 -0.7037 0.8751 6.0417 4.2024 3.0562 0.0073 -2.0329 -5.4885 3.7269 0.9936 -5.5080 3.2028 2.7507 1.4842 3.3568 2.2645 2.2817 1.6965 6.2377 4.2692 2.9767 0.6372 5.0742 7.3628 6.6786 4.1075
-0.8623 -1.8800 1.5047 -0.1354 -0.7732 1.8904 0.3152 1.1687 1.3005 1.7488 -4.1547 -3.5490 0.2795 1.4061 2.0067 -3.1386 1.3087 -0.7954 2.9905 0.0772 -0.1633 -0.2470 5.1522 3.5782 1.5439 -4.7539 4.9539 7.8974 7.5355 2.3772
-1.5295 -2.6568 1.2860 -1.9393 -0.6789 1.8155 -1.8888 -2.6647 -0.4167 1.1282 -4.6278 -0.1848 -3.4576 0.4759 2.6576 -5.6774 -0.0765 -2.0221 2.8488 -3.4937 -1.2059 -1.7446 3.7062 1.4323 0.0535 -7.0742 4.5594 5.6883 5.7182 0.8388
-2.1992 -2.4651 1.6544 -2.5497 -0.8810 0.3711 0.3528 -2.6155 -1.3147 -0.1924 -1.3201 -0.0312 -4.6934 -0.3167 -2.7693 -2.2400 -0.2939 -1.9624 2.3123 -4.2227 -1.1278 -1.5665 2.7454 -0.7268 -1.6178 -4.5595 5.4757 3.2747 2.4388 -1.3914
-0.6239 -1.3097 4.0279 -1.1320 -0.6538 1.0120 4.0241 0.8373 -0.2841 0.5279 0.1815 0.2597 -2.9171 0.9609 -4.0665 1.7723 1.0290 -0.1320 3.3658 -0.5424 0.4157 0.2193 3.7579 -0.6505 -1.8202 -0.3596 5.3334 2.8766 0.8376 -1.8703
3.0974 0.1487 5.9579 2.2303 0.0478 3.0395 7.0136 3.0522 1.9297 1.5765 -1.9458 1.8418 0.7188 2.2956 -2.7191 3.5463 2.7003 2.2153 5.4916 2.6749 2.2268 2.2738 5.8928 1.4853 1.0814 1.3797 2.5450 4.5414 3.0180 2.6764
3.5355 0.1303 4.6965 3.2292 -0.4090 2.1669 7.5155 3.5298 2.4317 1.0477 -3.1603 1.2776 2.6273 1.7858 -3.7943 4.3876 3.6865 3.0015 6.4337 2.9077 2.8181 3.9493 7.2141 3.6229 4.5052 1.3394 2.4945 7.1105 6.6770 7.7889
-0.0074 -1.6990 1.7148 0.5179 -1.8839 0.1176 3.1898 3.7054 0.9503 0.4185 -4.7190 -0.8024 1.5111 1.1473 -3.8158 1.5136 4.5208 2.8856 5.8039 2.3224 3.4445 5.3157 6.7664 3.0841 2.8576 2.6892 7.8828 7.5161 5.9432 4.7192
-1.6983 -3.0200 0.2764 -1.4581 -2.2941 1.4501 -2.7801 2.4673 0.0133 0.6785 -6.8524 -1.1746 0.2143 1.3303 -1.3907 -4.8164 5.1211 3.2085 4.2274 1.2102 4.3547 5.2442 4.2552 -0.2698 -3.3797 3.1863 10.8421 3.7005 0.0079 -5.1278
0.1548 -2.1444 1.3487 -0.3160 -1.5527 3.4497 -2.1627 0.9800 0.2803 0.2972 -3.4541 -0.4568 0.5937 0.8871 -2.0539 -5.2589 4.7180 3.3266 2.4962 -0.7204 3.4751 3.3069 1.2683 -2.4548 -6.4891 0.4041 5.5444 -0.7136 -4.1556 -9.6476
1.2007 -0.7694 2.3307 2.1473 -1.0946 2.2397 3.7104 2.3343 0.7207 -0.6361 0.3142 -0.9462 1.8568 0.0596 -5.1357 -0.0222 4.1401 3.0342 1.8996 -1.5116 1.6054 1.6469 1.0320 -1.3248 -3.9728 -0.7499 -1.1655 -0.8642 -2.4409 -4.0835
-0.2412 -1.1005 1.3455 3.4955 -1.1055 0.6350 4.3739 3.5331 0.9944 -0.1308 -6.4340 -2.6893 2.5386 0.5083 -3.2777 -1.2271 3.9662 2.5286 2.8487 -1.0208 1.0974 1.0716 3.4657 0.4975 -1.3345 1.5174 -1.5697 1.8339 1.1077 2.6667
-0.8721 -2.0471 1.0276 1.8289 -1.2300 0.5742 0.2156 0.3073 0.7951 0.6257 -14.1520 -4.5421 1.4576 1.3507 1.5032 -6.5182 2.7925 0.6484 4.0331 -0.6519 0.8293 -0.0884 4.6705 1.1934 -0.9746 0.9551 1.0393 2.5658 1.9941 2.9427
0.9588 -1.4943 2.8625 -1.3957 -1.2856 0.3149 0.4531 -2.8449 0.1936 -0.7130 -6.9434 -6.2489 -0.3797 0.5301 -0.8612 -3.0496 0.6490 -2.1150 3.7237 -0.1429 -0.5846 -1.5757 3.1114 0.8016 -1.3118 -2.6746 0.1568 0.1245 -0.2615 -1.4933
2.2665 -0.4063 3.4312 -1.7037 -0.9915 0.5815 3.6502 -0.5688 0.4630 -1.8287 6.1842 -8.0145 -0.0764 -1.0022 -8.0530 4.3179 -0.0198 -3.1015 2.2770 0.4064 -1.3751 -1.4982 1.4457 -1.1138 -3.0152 -2.8870 -2.0009 -2.0370 -3.3861 -6.0226
1.0632 -0.6231 2.2157 0.6666 -0.8503 2.0772 3.3099 3.2880 1.6080 -0.0322 7.8904 -8.4177 2.2119 -1.0363 -7.2035 3.5706 1.0943 -2.1174 2.2114 0.2299 -0.4676 -0.0345 1.4385 -2.8597 -5.2975 -0.5576 1.1104 -0.3194 -3.5863 -7.5853
0.0179 -0.8586 3.8617 1.1042 -1.3038 2.7366 2.7205 3.6228 1.7632 1.9669 3.5966 -5.5028 2.6487 -0.3601 0.4858 0.3832 1.3334 -1.1458 3.6273 -0.1596 0.7061 1.1884 1.3483 -1.9852 -4.2543 -0.4438 6.0674 2.8885 -0.6847 -4.9469
0.9112 0.5845 7.7996 0.2872 -1.2385 2.4211 5.8888 2.3622 0.8964 1.3838 4.5394 -1.4190 0.2841 -0.7006 1.7648 3.3038 0.0107 -0.6480 3.4200 -0.2281 1.0358 1.0670 -0.2801 -0.1231 -0.2970 -0.4814 2.9105 1.7876 0.4998 0.1187
1.1137 1.9292 7.4362 1.8079 -0.0984 2.4338 7.5836 2.4688 0.7247 0.2377 4.7102 -0.6711 -1.4864 -1.0688 -3.5001 5.5644 -0.9637 -0.5432 1.2570 -0.2805 0.3485 -0.5093 -2.0668 -0.0390 1.4861 1.2153 -5.8103 -2.5406 -1.5046 3.2052
-0.4706 1.0398 3.1273 2.7309 0.4634 2.1316 4.1474 1.8296 0.8894 0.6340 1.3166 -2.2474 -1.5332 -0.3158 -4.6270 2.0269 -1.3269 -1.1686 0.0995 -0.8612 -0.9102 -1.9519 -2.5147 -1.4156 -0.6737 0.7258 -7.5600 -3.5577 -2.8169 1.1990
-0.9681 -0.6305 2.1285 -0.1318 -0.6159 0.9449 1.2186 -1.0045 0.3339 1.1269 2.6183 -1.5140 -1.8703 0.3633 -1.3944 0.1758 -1.7637 -1.1442 0.7285 -1.6514 -0.6562 -1.1448 -1.5481 -2.3674 -2.8244 -1.4036 -0.0452 -0.2621 -1.5971 -2.7927
0.3486 -0.5644 4.6064 -1.8618 -1.8491 -0.2069 3.4483 -1.6605 0.2304 0.1063 4.0876 0.2598 -1.8594 0.1114 -1.6529 3.1271 -1.3375 0.5969 1.4946 -0.9568 2.2028 1.1744 0.2768 -1.6886 -1.5360 0.3683 7.9644 2.4927 0.0258 -2.9736
0.7756 0.7914 4.5647 0.8102 -1.7680 -0.3577 6.5238 1.8322 1.1797 -1.2119 -2.3117 -1.9636 0.4186 -0.2600 -5.1993 4.1420 -0.2926 1.4104 1.4306 0.8770 4.0518 1.7955 1.3461 -0.2793 0.8885 3.3330 9.5043 1.8491 0.0608 -0.4482
-0.3298 1.0884 2.2816 2.6500 -1.1923 0.5634 5.0643 3.5983 1.4265 -0.7660 -6.7240 -6.8070 2.4141 -0.2977 -4.7661 1.2601 -0.7309 -0.8187 1.0309 1.4966 1.0468 -0.3117 0.5809 0.2179 1.0347 -0.0230 3.7773 -0.4585 -0.8425 -0.1402
-0.7754 -0.0489 2.3216 0.3306 -1.4578 1.2248 1.3067 0.1242 0.1716 1.1192 -2.1393 -8.0123 0.5847 -0.3795 0.6431 -0.0951 -2.3237 -3.5221 1.6393 2.2184 -4.0869 -2.8313 -0.2904 0.6749 0.4830 -6.8307 -4.1171 -1.5628 -0.8150 -1.2787
-0.3306 -1.1288 3.8528 -2.6903 -2.4508 0.0424 -0.1410 -4.4052 -1.3207 2.1115 0.3689 -5.0873 -2.8734 -0.6687 3.2108 1.1960 -2.7932 -4.1957 3.1066 4.7509 -5.9446 -3.7189 0.1291 1.5466 0.8580 -8.6408 -6.5014 -1.2054 -0.3779 -1.6840
-1.0804 -2.0446 3.1207 -3.8597 -3.5511 -2.4197 -0.1867 -6.5223 -2.1194 1.2123 -5.2824 -3.6194 -3.8915 -1.0658 -0.4692 0.2315 -2.2835 -4.3042 3.0285 4.9124 -4.5993 -3.4144 0.0158 -0.2551 -1.1960 -6.2628 -2.1543 -1.4434 -2.2145 -4.1375
-2.0318 -3.1102 1.1621 -3.7051 -4.2485 -3.8287 -0.5586 -6.6476 -2.3058 -0.2536 -8.9913 -5.4843 -3.1435 -1.3953 -3.8831 -2.9226 -2.4393 -5.4407 0.8374 0.3658 -3.9037 -3.6512 -1.9109 -5.0556 -6.5115 -6.1985 1.2541 -3.5117 -6.3629 -9.4260
-0.2431 -2.9616 1.0954 -2.4636 -3.7247 -3.3259 0.6664 -5.5320 -2.2044 -1.0543 -4.2338 -7.6187 -2.7274 -1.2629 -3.9145 -2.2068 -2.6727 -6.3335 -0.9460 -3.4417 -4.6533 -4.7880 -3.3838 -7.6994 -8.8803 -8.5501 -1.5772 -5.8519 -8.7947 -11.4362
1.8281 -1.7790 0.9253 -1.0148 -2.2721 -2.4927 1.7697 -4.7479 -2.2168 -1.2149 3.0328 -8.7593 -2.2124 -0.5724 -4.8894 2.0576 -1.5428 -5.8567 -1.2128 -3.2063 -4.6875 -5.0709 -2.3577 -6.4153 -5.7441 -8.7655 -4.9294 -5.7771 -7.1109 -7.8938
-0.0961 -2.0200 -2.1613 -0.9163 -1.6442 -2.3256 -1.4480 -5.5131 -2.2273 -0.9349 7.8877 -8.8695 -1.7980 0.1579 -6.5770 3.1236 -0.1664 -5.2234 -1.3494 -2.7695 -3.2819 -3.6610 -0.5698 -5.7902 -4.0997 -6.1532 -1.1720 -3.6786 -5.0586 -7.0739
-3.2034 -3.4321 -4.3274 -1.4958 -2.2400 -2.3233 -4.6899 -5.8115 -1.4985 -0.4297 7.9771 -6.9192 -2.3030 0.7521 -5.0988 -0.0672 -0.2805 -5.2208 -1.6645 -4.1775 -1.8670 -2.2952 -0.5597 -7.8213 -8.0145 -4.0053 5.9825 -2.9543 -6.7295 -12.7935
-2.8812 -3.3534 -2.1294 -1.2043 -2.6312 -2.6766 -1.6899 -4.1885 -0.2325 -0.4093 0.0694 -4.9493 -1.8516 1.4907 -2.8399 -2.7491 -0.9444 -4.9557 -1.2879 -4.6801 -2.1702 -2.6600 -1.9186 -8.9851 -11.1333 -5.1260 5.8061 -4.6867 -9.4727 -15.5047
-1.0963 -1.7792 0.4623 -0.5888 -2.2019 -3.3090 3.4097 -2.3455 0.2054 -1.0997 -8.1469 -5.7424 0.4748 1.9873 -4.1644 -2.3728 -0.5886 -4.2864 -0.8738 -3.8600 -4.3134 -4.2594 -2.7149 -7.6255 -8.7687 -8.6602 -3.5825 -6.4541 -8.9487 -9.7321
-1.4582 -1.0242 0.0821 -1.1481 -1.7312 -3.0708 3.7517 -1.6529 -0.8258 -1.6295 -6.2167 -6.5967 0.9466 1.6453 -7.0651 -0.7962 0.0537 -4.0339 -1.3562 -4.1572 -6.1440 -5.5213 -2.2468 -6.1534 -5.4142 -9.8477 -12.6113 -6.9853 -6.7530 -3.3369
-3.0329 -1.9074 -1.5517 -2.9648 -2.0508 -2.5430 -0.1280 -2.3902 -2.6128 -1.7694 -1.5618 -5.5850 -2.3907 0.6018 -7.3136 -1.4948 -0.6546 -4.8804 -1.8758 -5.1860 -6.7264 -6.1597 -1.7074 -6.0943 -5.5025 -7.5595 -14.5050 -8.0045 -7.0894 -3.2924
-3.4242 -3.1971 -2.9671 -4.3547 -3.0852 -2.9925 -3.6389 -4.4524 -3.9729 -2.6141 -3.9527 -6.4342 -5.1410 -0.8602 -6.4143 -4.5520 -2.5378 -6.9843 -2.0940 -5.3077 -7.9221 -6.9422 -2.8576 -7.0090 -7.7808 -7.5861 -12.1312 -10.2670 -9.9748 -7.9370
-3.0147 -3.9768 -3.7461 -3.9685 -3.7904 -3.3640 -4.2321 -6.4022 -4.0099 -4.0650 -7.7067 -9.2428 -4.4155 -2.3299 -8.0595 -6.6847 -3.6552 -8.4861 -2.9896 -5.6673 -9.4440 -7.2179 -4.9104 -8.3651 -9.9469 -10.8203 -9.7941 -11.0820 -11.6974 -12.1103
-3.5976 -4.7719 -3.7130 -2.7701 -3.6056 -2.8054 -3.6893 -6.9874 -2.8072 -4.4408 -6.5896 -9.7074 -3.6262 -2.9059 -9.7787 -6.8764 -3.1334 -7.6157 -3.9823 -7.0163 -9.2018 -6.2322 -4.9107 -9.1836 -10.8478 -11.2259 -8.9086 -8.5716 -10.0455 -11.8200
-4.9416 -5.5976 -3.9669 -2.3790 -3.1566 -2.4640 -4.3215 -6.2897 -1.4838 -3.6967 -2.5468 -9.2072 -4.6119 -2.3254 -7.8525 -5.8782 -2.3727 -6.4603 -3.8669 -7.4901 -8.5706 -5.3890 -2.8416 -8.7274 -9.8011 -9.5190 -9.0803 -5.3435 -7.0037 -8.5573
-5.4584 -5.3673 -4.7984 -2.9264 -2.8049 -2.7557 -5.1468 -5.0011 -1.2106 -3.3523 0.3287 -11.0582 -4.7203 -1.7546 -5.4303 -4.5440 -2.5799 -7.1123 -3.6690 -6.9716 -9.0265 -5.5025 -1.8920 -8.3303 -8.4621 -10.8441 -7.8452 -5.3656 -6.6810 -8.5025
-5.0127 -4.5815 -6.0521 -3.2954 -2.3386 -3.0197 -6.1931 -4.5129 -2.0604 -3.2914 -3.3413 -12.6768 -3.9058 -2.6202 -4.9938 -6.6245 -3.6532 -8.3397 -4.4171 -7.5058 -9.4187 -6.1780 -3.2374 -9.7071 -10.1871 -13.4424 -6.4791 -9.9116 -11.1776 -13.7031
-4.1666 -4.7064 -8.3111 -2.3362 -1.9041 -3.1875 -8.7719 -5.0155 -2.7671 -2.3364 -12.3712 -12.4882 -4.3559 -4.5458 -2.6133 -12.4028 -5.1409 -9.6008 -4.5489 -7.7637 -10.8218 -8.1352 -5.0554 -11.5146 -14.0508 -14.5848 -9.9972 -15.6741 -17.0257 -18.7818
-2.5585 -4.6558 -8.9614 -1.0857 -1.5830 -3.1271 -9.4812 -4.6655 -2.3821 -0.9301 -14.4760 -13.5458 -4.4774 -5.3926 1.3064 -13.1854 -5.5492 -10.7550 -2.7835 -4.8308 -13.6518 -10.2705 -5.5221 -10.3422 -13.8154 -15.8192 -14.6848 -16.3556 -17.1689 -17.7707
-0.0686 -2.7672 -5.0220 -1.6430 -1.0823 -2.3383 -5.4034 -3.6428 -1.5845 -0.4769 -5.7364 -15.1193 -2.2762 -4.6266 -0.0334 -5.7816 -3.6212 -9.5028 -1.0633 -1.5519 -13.4187 -9.3558 -4.4769 -6.3714 -7.7941 -15.7951 -12.9878 -11.4800 -11.0386 -11.2391
2.0250 -0.6882 -0.9894 -2.3198 -0.4638 -1.0692 -1.4083 -3.7599 -0.9693 -1.0596 2.5067 -13.2342 -0.2967 -4.0938 -6.0634 0.1723 -1.3567 -6.0598 -1.7816 -2.7671 -9.1756 -6.4127 -3.6721 -4.6425 -3.6170 -11.6428 -9.0058 -8.7541 -7.3574 -6.3722
2.1027 -0.5300 -1.7609 -0.6431 -0.2352 -0.3839 -1.2752 -3.6542 -0.1613 -1.6031 4.4573 -9.3663 -0.6001 -4.0277 -9.0939 -0.1748 -0.9067 -3.8640 -3.8291 -6.1360 -6.0348 -5.0610 -4.4820 -7.1249 -5.8593 -6.5387 -8.6306 -10.5503 -9.7945 -7.4903
0.7255 -1.1669 -2.6337 0.1868 -0.8560 -1.2715 -1.0027 -2.4533 0.2827 -1.6591 3.7530 -7.4606 -0.6915 -2.8067 -7.3573 -0.5466 -0.6496 -3.0438 -4.0890 -5.8221 -5.0390 -4.5246 -4.9200 -8.5130 -8.0379 -4.9436 -7.6459 -9.8811 -10.7138 -9.1881
0.5875 -1.0224 0.9600 -2.8024 -2.1076 -2.9510 0.6827 -3.6675 -0.5855 -1.1960 1.9448 -6.5768 1.0310 -0.8772 -3.6629 1.4502 0.8061 -1.5068 -1.8222 -1.3253 -3.0947 -2.5981 -2.5546 -5.1964 -5.2381 -4.9131 -4.2772 -5.2646 -6.6678 -6.8077
1.8688 -0.7959 3.9139 -5.7570 -2.9271 -3.2337 -0.6451 -6.1875 -1.8315 -0.0034 -0.6331 -4.9071 1.8380 -0.0708 0.6661 1.5485 1.7924 -0.3172 0.4514 3.5437 -0.8370 -0.6439 0.6447 -1.4497 -2.2242 -2.7680 -3.5382 -3.1628 -4.2350 -4.7385
1.5816 -1.2980 2.0078 -5.2734 -2.7949 -2.6363 -2.9806 -2.8786 -1.8858 0.5623 -4.2209 -4.5384 0.4903 -0.5525 1.7003 -0.5834 1.6816 -0.8719 0.1011 5.1648 -0.2067 0.0490 1.2196 -1.4361 -2.5575 -0.1641 -3.6482 -3.4949 -4.9805 -5.1794
-0.1912 -2.1522 -0.7094 -3.8387 -2.4899 -3.2111 -1.3708 3.6568 -0.9764 -0.8886 -7.8049 -6.5967 -0.0397 -1.5833 -2.5673 -1.9622 1.6339 -1.5726 -2.2501 2.1128 -0.3126 0.4837 -0.4340 -3.2748 -3.7857 -0.6070 1.1308 -0.4168 -3.1561 -4.4930
-0.2238 -3.0157 -0.9025 -4.0259 -2.5336 -3.3388 -0.6072 2.8083 -0.6722 -2.2217 -6.1275 -8.0332 0.7561 -2.7576 -4.5846 -3.0830 1.2411 -1.3802 -3.4259 -2.2918 -0.6907 0.6132 -1.8556 -4.1596 -4.6816 -3.0099 6.4299 4.0092 0.4633 -3.6790
1.0139 -3.3917 -0.0742 -4.6910 -2.5289 -1.8038 -3.5380 -2.8085 -1.3868 -1.9469 -2.1362 -6.5241 -0.0993 -3.5461 -1.3986 -4.5402 -0.0678 -1.2545 -2.5260 -3.1453 -1.3905 -0.1182 -2.1478 -3.8695 -5.0568 -3.6473 5.8867 4.1411 0.9230 -4.4382
0.9343 -2.5549 0.7900 -4.1262 -2.3565 -1.2953 -2.5099 -2.0835 -1.6637 -2.2700 -3.8903 -4.1249 -1.8980 -3.8021 -0.9815 -3.7866 -1.1187 -1.5241 -1.8859 -1.7226 -1.3253 -0.8875 -2.0054 -3.3002 -3.9194 -2.5004 3.5215 1.8053 -0.5445 -3.7474
1.1713 -1.0747 1.6588 -3.1404 -2.1706 -1.4276 1.1698 2.1441 -1.0809 -2.8146 -5.6094 -3.9283 -1.7530 -3.9442 -2.2464 -2.2341 -1.6038 -2.0917 -2.0306 -2.0643 -1.6142 -2.0347 -3.1638 -3.7475 -3.7218 -2.7129 1.8051 -1.0982 -2.7796 -3.5519
3.6254 -0.3147 1.7948 -3.4633 -1.7966 0.1388 -1.5975 0.7988 -1.0896 -1.3953 -3.1248 -5.1381 -0.6028 -3.7437 1.8864 -4.6282 -1.8751 -2.6687 -1.4089 -2.9669 -3.4170 -3.9346 -6.0413 -5.1358 -6.2888 -3.6323 -3.5314 -6.1147 -7.1937 -6.6110
4.9958 -0.6011 1.5152 -4.3698 -1.6269 0.2965 -5.0225 -2.4523 -1.6763 -0.9351 -4.7464 -4.4347 -0.1428 -2.9310 3.8831 -7.2596 -0.7622 -1.5626 -0.7718 -1.9039 -3.0547 -3.5633 -7.2962 -4.9366 -7.1334 -1.3200 -7.2935 -7.3906 -8.3081 -6.4339
3.1556 -1.4233 1.3188 -4.3379 -2.4953 -2.5994 -1.3648 -1.7832 -1.3859 -3.7080 -5.6652 -2.0868 0.6009 -2.3643 -2.5838 -3.0056 1.6640 1.3806 -1.2484 0.2243 1.3162 0.6044 -4.2480 -2.0818 -3.7217 3.0768 0.4377 0.9210 -1.3245 -1.6768
2.0793 -1.9524 0.5850 -4.0316 -3.8092 -3.3203 0.6584 -1.4009 -0.2869 -5.5693 2.5630 -1.1973 2.5425 -2.4262 -6.8041 2.7855 2.9922 3.1443 -1.7298 1.6818 4.9062 4.4773 0.1597 0.4622 -0.6380 4.7404 12.9149 9.1013 5.2519 -1.3682
3.6954 -1.3413 0.2815 -3.7550 -4.1536 -0.6421 -2.3870 -2.6365 0.6217 -4.4118 6.3647 -0.8660 4.4911 -2.3572 -3.7700 1.9116 2.7855 2.7364 -1.9953 1.4784 5.0198 4.9133 1.8530 0.4226 -0.4097 4.2966 16.2073 7.1798 3.8213 -4.5660
3.5609 -0.1943 2.0117 -2.6814 -3.5957 0.0291 -0.8766 -0.1562 0.9598 -3.2421 -1.2281 1.9042 4.1160 -2.0023 -1.1439 -0.0457 3.0060 2.7152 -2.0533 1.5555 4.8378 4.1997 1.8044 0.7158 0.6280 5.8830 12.6106 3.7551 1.9641 -1.6966
0.3892 -0.0109 3.6117 -2.0737 -3.0373 -1.7379 3.0325 3.7523 0.6348 -2.7708 -5.0046 5.0518 1.3288 -1.6093 0.2060 2.4683 3.8268 3.6157 -0.2487 5.1873 5.8971 4.4868 2.6970 4.1498 4.2102 8.7773 12.0058 8.0537 6.5620 5.0217
-0.5586 -0.5400 2.6539 -2.9055 -2.6143 -1.1962 0.1966 3.1333 -0.1354 -1.8784 -1.7466 4.4985 -0.4217 -1.2345 3.2366 2.7417 3.3810 3.1322 2.0011 8.6651 5.6526 4.1163 3.2765 6.7575 6.1146 8.6877 12.1279 11.9569 10.3043 6.5344
2.3824 -0.4841 1.3872 -2.6453 -2.2887 1.1684 -2.9697 2.0885 -0.6907 -1.9689 -2.0519 1.5161 0.6618 -1.6599 3.9416 -0.9556 1.5861 1.5057 0.8451 6.4899 3.3767 2.3276 1.7665 4.2028 3.2446 5.3992 7.9055 7.8792 6.5211 2.6202
5.1190 0.2468 1.4593 0.2011 -2.0774 1.3006 1.4472 5.6422 -0.3108 -3.4915 -2.7016 0.4285 2.2629 -3.0492 0.2972 0.1987 0.9402 1.7919 -2.4669 3.1622 2.0845 1.6317 0.2563 0.0866 -0.6170 3.5899 5.2604 2.7585 0.8457 -1.5254
6.3261 1.3891 1.4839 2.7658 -1.6356 0.5571 5.9858 8.6596 0.9780 -3.8485 4.0893 1.7652 2.9776 -3.6982 -3.2338 6.5496 2.5190 4.2730 -3.4406 3.9103 3.1280 2.6708 0.0945 -0.7267 -0.6436 5.5016 7.2648 1.8001 -0.7892 -2.8916
7.4741 2.7690 2.6915 1.9446 -1.2705 2.2219 4.2264 6.7282 1.4748 -1.8487 9.6484 3.4467 3.5933 -2.7841 -2.5118 8.0877 4.2276 6.0694 -1.1305 5.2827 4.1966 2.9998 -0.6917 0.5011 1.4728 8.0743 5.5443 0.4324 -0.9222 -0.9785
7.9159 3.3447 6.2580 -1.1766 -1.6743 4.0405 1.3470 4.1099 -0.0332 0.4271 3.6214 5.8704 3.7441 -1.5828 2.6961 2.9948 4.6318 6.4214 2.5962 6.0148 4.4587 2.6843 -1.8456 1.8658 2.1611 9.1817 -0.8388 -1.5568 -1.4210 2.3651
7.2771 2.7172 8.3731 -2.5839 -2.1815 3.4630 1.6479 4.1200 -1.2188 0.5549 -6.0308 9.1715 3.5517 -0.8794 6.8319 -0.4372 4.7454 6.8848 5.2905 8.4143 5.6850 4.0639 -0.8166 3.8654 2.7361 10.1824 -1.1407 1.5600 1.1138 5.2708
6.5285 1.7468 6.3712 -1.1540 -2.0941 2.8303 2.0799 4.0311 0.2811 -1.2847 -7.5277 9.7232 4.8175 -0.4839 4.7390 -0.2874 4.9610 7.0702 4.9567 8.5640 7.1655 6.0330 1.1404 5.0543 4.1269 11.0150 5.3835 8.0041 6.4046 7.4508
5.3259 0.6512 2.8628 -0.3154 -2.2568 3.4752 -0.4087 2.9409 2.1258 -2.4220 -2.8896 6.4527 6.3321 -0.5965 1.6633 -1.7831 4.4161 5.6174 3.0468 4.2777 6.1430 5.6966 0.8370 3.9395 3.1344 9.6095 8.4835 10.4010 8.6176 6.9077
3.8986 -0.4388 0.8422 -1.8245 -2.9261 3.3420 -3.0497 3.6887 1.3175 -1.8163 1.1418 3.9572 4.9728 -1.0983 2.7868 -3.7985 3.3118 3.7136 2.2491 1.7469 3.4244 3.9243 -1.0618 2.2215 -0.5563 6.3314 6.7681 7.7957 5.6631 1.7720
3.2094 -0.9731 -0.4714 -3.3866 -3.2047 2.0461 -3.6016 5.1487 -0.8453 -1.5955 0.8312 3.7703 1.7210 -1.4776 2.2431 -4.0993 2.1190 2.4384 1.1602 1.8036 1.6118 2.4713 -2.8000 0.1500 -3.8858 2.9312 4.5658 3.0482 0.3529 -4.8013
2.3739 -1.5068 -3.2035 -3.9317 -2.9057 1.5105 -6.0848 3.8029 -2.0486 -2.0692 -4.1985 2.2304 -0.9087 -2.0369 -1.0858 -7.6404 0.0804 -0.1985 -2.0189 -1.2992 -0.7057 -0.3316 -5.3148 -3.9922 -6.9328 -1.2375 -1.1144 -3.4681 -5.4711 -9.0089
1.7495 -2.1568 -4.8582 -4.3533 -1.9950 2.1508 -9.8499 1.5696 -2.0333 -1.2857 -7.2768 -0.2151 -2.4751 -2.4026 0.5814 -12.4732 -2.1335 -4.0840 -4.3301 -4.8896 -4.6444 -4.0458 -7.8174 -7.4772 -9.4111 -5.2884 -8.6834 -7.8111 -8.7199 -9.8353
3.0608 -1.6776 -2.0283 -3.9826 -0.3835 2.0008 -7.0281 1.4013 -0.8598 -0.6453 -5.0095 0.1532 -1.8978 -0.9320 3.3244 -9.1472 -1.6098 -4.4951 -3.2660 -2.7750 -5.3537 -3.5440 -6.7329 -5.8075 -7.1780 -4.4076 -6.0265 -3.3492 -4.6605 -5.8604
4.6426 -0.4875 0.8103 -2.3175 0.7392 0.0796 0.3049 1.6613 0.9278 -2.5423 -3.6616 1.7483 0.8258 1.6455 -2.3639 -0.6800 1.6658 -0.3101 -1.1664 1.5853 -0.4588 1.4661 -2.9174 -1.1743 -0.9324 0.8716 6.5530 6.0459 3.6008 0.7265
5.0484 0.1467 -0.6864 -0.6922 0.6430 -1.4262 3.0560 1.9726 1.8789 -4.7811 -4.4696 2.1503 2.6104 2.4460 -8.8488 3.1984 3.7514 3.1772 -0.0155 3.5353 3.7717 4.4546 -0.9824 1.0041 2.6409 3.3261 12.6822 9.6208 6.8959 3.2180
6.6082 1.0589 -1.5175 0.6574 0.6347 -0.6962 2.9920 3.9784 2.0951 -4.7301 -4.0391 3.9039 2.9837 1.4978 -5.3119 3.7609 3.3048 3.4490 1.4167 5.5698 3.3540 3.5782 -0.8506 0.7215 2.5728 2.2722 7.6197 6.5536 4.2402 2.1696
8.8183 2.5338 1.1022 2.0411 1.4307 0.5356 4.6543 5.2709 2.4755 -3.5172 -4.4990 7.1355 4.1571 0.9285 1.1837 5.1712 3.0638 3.5039 3.1752 8.3089 2.6353 3.5539 0.5281 1.1994 3.7349 3.3869 3.0356 4.2875 2.6463 4.1302
7.8603 2.7956 2.1172 1.9645 1.9619 0.4094 4.3445 3.8199 2.2766 -2.5079 -5.4500 7.5355 4.8870 0.6517 1.5897 5.4310 3.8836 4.2436 3.5209 8.6046 4.0571 5.3679 2.1689 2.8069 6.3228 5.7846 4.0740 5.3441 4.5585 7.7658
5.1770 1.8828 0.6443 0.1167 1.7021 -0.0173 1.3673 2.6829 1.3800 -1.8593 -3.7075 5.2270 3.7640 0.0883 0.1833 3.7686 4.0102 3.6861 2.9199 7.3175 4.4865 5.5190 1.8135 3.7693 6.4855 5.0145 5.2933 6.3646 5.9307 7.1401
5.1936 1.4322 -0.1712 -1.3090 1.1382 -0.1073 -0.0954 2.2804 1.1150 -2.2157 -2.7273 4.5310 3.4540 0.2082 1.0874 2.0198 3.4024 2.6347 2.9199 6.7078 3.5949 3.9962 0.8017 3.1825 3.8042 3.2344 5.8342 5.5336 4.4014 2.7992
6.3785 0.8961 -2.2861 -1.4136 0.4351 -1.3735 -1.5400 -0.5228 0.8882 -3.3776 -4.4808 5.3392 3.9392 0.6405 1.1869 0.2196 2.5688 2.2318 2.5556 5.6854 3.4926 2.9517 0.6940 1.3713 0.7225 3.6312 8.6427 4.0774 1.7815 -1.6513
5.4836 -0.5128 -6.3414 -1.2995 -0.1233 -3.2987 -4.9507 -3.4038 -0.4264 -3.7262 -4.7876 4.4896 1.2695 -0.3731 0.4307 -1.5883 0.3541 0.1618 0.5267 3.7952 2.2554 1.1871 0.0595 -0.7760 -1.4685 3.5124 9.2870 2.0422 -0.6087 -4.7999
4.7195 -1.0904 -6.6670 -1.9710 0.2633 -3.0563 -6.2390 -2.3542 -1.2538 -2.6763 -3.1478 3.2778 -3.1317 -2.3901 1.4504 -2.1942 -2.5017 -3.4332 -1.4816 2.7820 -1.3712 -1.8308 -1.8362 -1.9867 -2.3215 1.1696 3.4535 -0.5825 -2.3041 -5.1501
6.0598 0.0345 -2.6831 -3.7301 1.5183 -0.9291 -4.3049 -0.3177 -0.6358 -1.3479 -1.1556 3.8315 -3.7311 -3.3362 1.6292 -1.3214 -3.1444 -4.3509 -1.6788 2.9987 -3.4194 -3.0402 -3.1278 -1.7804 -1.9850 -0.4069 -2.2908 -1.3093 -2.1226 -3.3297
6.7681 1.0547 -0.9439 -5.2162 2.3631 0.0809 -3.3486 -0.7754 -0.1601 -1.1134 1.5085 3.0620 -0.9336 -2.8641 -1.6833 -0.2180 -1.8499 -2.4554 -1.4510 3.0008 -1.9975 -1.8915 -3.0529 -1.5353 -2.0714 -0.2176 -2.0885 -0.4184 -1.5075 -3.7344
4.8617 0.7346 -2.9069 -4.3720 1.9512 -0.2464 -4.1922 -1.2601 -0.2060 -2.2769 1.8635 -0.2184 0.5024 -2.3381 -4.2765 -0.7189 -1.3209 -1.5131 -1.9210 2.3715 -0.1226 -1.1770 -2.6323 -1.6263 -2.7115 -0.1930 0.3815 -0.1624 -1.8041 -6.0377
1.7951 -0.2133 -4.3589 -2.2169 0.8126 -0.1266 -4.7304 0.0146 -0.0729 -3.3659 -1.7879 -1.4740 -0.3146 -2.2502 -2.2679 -2.8536 -1.8274 -1.8590 -1.2846 2.3105 0.5448 -1.2019 -1.8928 -0.0628 -1.5004 -0.1532 2.5625 1.9555 0.5137 -4.3937
0.0146 -0.6062 -3.4970 -1.5649 0.1949 0.2698 -4.3999 0.6107 -0.5344 -2.7872 -4.4339 -0.0799 -1.1923 -1.6991 0.9516 -3.8439 -2.1710 -1.7737 0.7680 3.2478 0.5090 -0.8013 -0.9086 2.5369 0.9448 0.6723 4.7694 5.3530 4.4159 -0.2292
0.9248 0.2296 -0.8792 -2.2082 0.7716 0.5051 -2.8619 -0.3512 -1.7317 -1.3897 -3.1002 -0.1819 -1.9832 -0.7968 1.2215 -2.0389 -2.7070 -1.9237 1.2861 4.4545 -0.5879 -1.2462 -1.4652 2.4146 0.3396 0.4353 2.5197 1.8368 1.2250 -2.2649
3.3479 1.6593 2.0186 -2.3313 1.8069 1.3449 -0.6869 -1.1873 -2.0433 -1.1638 -0.9065 -0.9584 -3.0978 -0.9380 -0.6565 0.2296 -3.5988 -2.8734 -0.6964 5.4714 -2.2596 -3.2432 -3.7680 -0.5490 -3.5619 -1.5255 -5.6306 -7.7069 -8.1650 -10.1195
4.7831 2.1493 2.0789 -2.0720 2.0952 1.8942 -0.3320 -2.1586 -1.0791 -2.0225 0.0651 1.0843 -2.6377 -1.7569 -3.1911 0.6914 -3.3550 -3.0772 -2.5739 5.6454 -2.4988 -4.3637 -4.7011 -2.5836 -5.8797 -1.9295 -11.1723 -11.0416 -11.6493 -13.2418
4.2637 1.2067 -1.9729 -1.6860 1.5717 0.7228 -2.6250 -3.7887 -0.2715 -2.5013 1.6846 3.1888 -0.5300 -1.8104 -5.9407 0.4848 -1.9744 -2.2136 -2.8413 4.8513 -1.4193 -3.3609 -2.9989 -2.4578 -4.9114 0.5705 -8.2115 -5.7632 -6.9500 -9.7080
2.2948 -0.3951 -6.8259 -0.6330 0.9381 -0.7851 -5.2748 -3.4311 -0.2941 -2.5309 3.3070 0.9445 -0.2299 -1.6992 -7.0071 0.0890 -1.5416 -2.0922 -2.6583 4.2270 -1.3046 -2.3904 -1.8104 -1.8184 -3.9704 1.6171 -1.2765 -0.5821 -2.6650 -8.0350
0.2192 -1.6789 -7.9241 -0.3685 0.5006 -1.3086 -5.6106 -0.4360 -0.5731 -2.7477 -0.3064 -2.8767 -2.2212 -1.9977 -4.9682 -2.2113 -2.1159 -3.1180 -2.3698 3.8760 -2.5571 -2.9450 -2.6187 -0.8936 -4.1353 -1.5127 2.4324 1.4305 -1.0460 -8.7471
-0.1028 -1.6825 -4.8280 -2.2133 0.3943 -1.6890 -3.8344 0.7489 -0.7080 -2.6243 -6.9262 -3.0889 -3.1590 -1.5515 -1.2495 -4.5210 -2.0628 -3.6917 -1.0329 3.7586 -3.4949 -3.9701 -2.7496 0.7788 -3.3071 -4.6726 -0.6274 1.4426 -0.0021 -6.3542
1.4243 -0.4837 -1.8968 -3.3651 0.5661 -1.7519 -2.6318 -1.4004 -0.4031 -2.0766 -7.5596 -0.4996 -2.1130 -0.8983 1.1311 -3.4504 -1.7647 -3.0269 0.1197 4.8719 -3.1905 -4.1505 -1.4559 1.5400 -2.1798 -3.8490 -6.9946 -1.5095 -1.6049 -4.3348
2.2277 0.1106 -2.1563 -1.7732 0.2562 -1.2884 -2.7454 -2.6789 0.5638 -2.5380 -5.9999 1.0553 -0.5212 -1.6241 0.1986 -2.0322 -1.8264 -1.5064 -0.7385 5.7726 -1.5271 -2.7440 -0.7332 0.6753 -2.2176 -0.6369 -7.5522 -3.3979 -3.6898 -5.2264
0.4474 -0.5620 -3.3455 -0.6935 -0.5842 -1.9259 -2.1309 -1.2153 1.3495 -3.9459 -9.4585 1.4847 1.1353 -2.1962 -2.7489 -2.5774 -0.7355 0.7772 -1.5445 5.2467 1.7522 0.5200 0.0923 1.3999 -0.4862 2.1828 0.5364 2.3216 0.9291 -2.1638
-2.1593 -0.6811 -2.8194 -2.3449 -0.4621 -2.6984 -0.9517 0.5857 1.0187 -3.9269 -7.6146 3.2235 2.0691 -0.8201 -3.8449 -0.3105 1.6755 3.2966 0.2343 6.5929 5.5420 4.1313 2.4726 5.0157 3.8072 3.7854 9.8141 11.2894 9.1921 2.9320
-2.8662 0.0024 -2.2718 -4.0271 0.7129 -1.1425 -2.6901 1.2761 -0.2138 -1.9557 2.7318 5.0301 1.1314 0.2461 -0.2784 2.9364 2.7094 4.0332 2.4233 9.9386 6.7050 5.1143 3.8589 6.7084 4.3028 3.5694 12.8875 12.3341 9.4816 -0.8757
-1.6501 -0.3015 -3.7288 -3.8521 0.7774 0.2503 -6.8539 1.6433 -1.9131 -0.6192 3.5486 3.2639 -0.6894 -1.1931 5.0972 -0.5595 1.2020 1.9941 1.9105 9.8757 4.0128 2.5432 1.9135 3.5510 -1.0689 1.7299 7.5183 4.0829 0.8100 -9.6575
0.1553 -0.7451 -4.7403 -3.0403 -0.3700 -1.0209 -7.2672 2.0284 -3.3368 -1.1745 -4.3902 0.3551 -1.5968 -3.2456 5.0437 -4.6557 -0.6239 -0.2699 -0.5882 6.5310 0.9425 -0.6983 -0.7035 -0.0419 -4.4643 0.4506 -2.5371 -3.7276 -5.7774 -10.5450
1.7002 0.4310 -3.3714 -2.1468 -0.2895 -1.6318 -3.4915 0.4464 -3.0062 -1.8382 -0.5819 1.4125 -1.2670 -3.8726 -1.1258 -0.0894 -1.0941 -0.2578 -2.7352 4.9306 0.6639 -1.6871 -1.0500 -0.5597 -2.2666 1.1825 -7.2362 -4.5260 -4.9872 -6.0431
1.9228 1.3512 -3.0008 -0.6563 1.1466 -0.3150 -2.6515 -3.4169 -1.1804 -1.5640 7.8187 2.9673 -0.1404 -3.8014 -4.7818 3.9610 -1.0811 0.3542 -3.3928 4.8557 1.3994 -1.2333 -0.5695 -0.4435 -0.8567 2.3340 -2.1483 -2.0039 -2.7233 -6.1012
0.8692 0.3106 -5.0555 0.5581 1.9748 -0.2982 -5.2847 -4.3421 -0.5733 -1.4194 1.5452 -0.1179 0.4987 -3.9178 -2.0145 -1.1098 -1.2010 -0.6914 -2.6820 3.9596 0.6313 -1.5237 -1.4003 -1.3885 -3.5039 1.5499 3.6325 -1.5426 -3.6409 -9.5247
0.4333 -0.7658 -5.9052 0.6604 2.0321 -1.0948 -5.2165 0.0346 -1.9071 -2.1706 -7.4473 -3.4130 -0.3571 -4.3241 0.2927 -5.5950 -0.7493 -1.9024 -2.2190 3.3616 -0.8703 -2.3729 -2.6016 -1.8786 -5.9013 -0.9396 1.8939 -2.4255 -5.0627 -10.6825
1.1401 -0.7045 -5.5904 1.2447 1.8758 -0.5389 -2.6875 3.5358 -2.2324 -3.4341 -4.6298 -3.0200 -0.4274 -5.3240 -2.4518 -3.2845 0.0211 -1.3637 -3.4154 3.3695 -2.0240 -2.4571 -2.8293 -1.8623 -5.6393 -3.0766 -3.5512 -2.2244 -4.3855 -9.3658
1.6219 -0.5760 -6.4640 2.8757 1.2911 -0.0404 -2.0037 2.3127 -0.3475 -4.1565 -0.6221 -2.9338 1.9917 -6.3764 -5.2669 -1.2960 -0.1120 -0.3932 -4.6845 2.6487 -3.0103 -1.8994 -2.8849 -2.3235 -4.7334 -3.9488 -5.9254 -1.6025 -3.2234 -7.5946
1.3160 -0.3984 -5.6019 2.6949 1.0776 0.1987 -2.4282 0.1520 0.8551 -3.5562 0.0666 -3.7859 3.3194 -6.1358 -4.5526 -1.4885 -0.8757 -0.4115 -4.1338 2.0442 -2.6892 -1.1849 -3.1304 -2.5702 -4.4219 -3.4249 -3.5668 -1.1483 -2.9279 -7.3021
0.4086 0.0407 -2.1068 0.2429 1.8335 1.1532 -1.9642 0.1224 -0.2621 -2.4539 2.5987 -1.6737 1.1599 -4.7110 -3.1886 -0.4398 -0.9592 -0.1298 -2.9570 2.7103 0.0159 0.0465 -2.2974 -2.0458 -4.3193 -1.0238 1.4019 0.2491 -2.5199 -8.6327
-0.1635 -0.1227 -1.2415 -0.7034 2.1496 0.7299 -1.7393 1.7083 -1.8074 -2.0118 -0.8400 1.4036 -0.7681 -3.6378 -1.2323 -1.2954 -0.5868 1.3551 -2.2397 3.8215 2.6599 1.1792 -0.9469 -1.2538 -4.2703 2.1663 4.4932 2.0340 -1.6224 -8.1305
1.5948 -0.2310 -3.2878 0.7702 1.5174 -0.9602 -1.9541 3.9383 -2.2084 -2.1122 -10.5537 1.3621 0.3861 -3.3569 2.3733 -4.6834 -0.6881 2.6511 -1.3892 4.9523 2.7771 0.7360 -1.2845 -0.4697 -4.1471 3.9318 2.7587 2.1465 -1.3625 -5.1953
4.7513 0.9090 -3.3937 1.7319 1.1517 -0.1061 -1.1755 5.5041 -1.5871 -2.5082 -9.8646 0.1980 2.1617 -2.7942 1.9368 -3.8018 -0.8083 2.9938 -1.2101 6.4359 2.1531 -0.5622 -2.6060 0.0405 -3.5823 4.0637 -0.8636 1.1083 -1.7545 -4.3207
5.1852 1.5511 -2.1355 1.2701 0.8557 2.6468 -0.5393 4.6774 -0.3803 -3.0196 1.6869 0.7196 1.8420 -1.7154 -4.2920 1.2665 -0.4111 3.0037 -2.2792 7.5236 2.6689 -0.5069 -2.1922 0.4607 -2.2500 3.4952 -1.8007 2.1930 -0.3974 -5.5857
2.7752 0.0261 -3.1020 0.7521 -0.0807 3.0854 -2.3244 1.5152 0.5891 -3.0025 8.0087 1.3634 0.2959 -1.3571 -7.9689 3.1680 -0.0662 2.3999 -2.6959 7.4527 3.1073 0.8813 -0.3031 1.2856 -0.8154 2.6741 0.8303 5.7224 2.9727 -5.5061
1.5855 -1.6455 -5.5064 0.8120 -0.4112 1.3125 -5.0930 -0.4054 0.4787 -2.5811 4.4836 0.0717 -0.7076 -2.2779 -5.9340 0.4552 -0.3077 0.7086 -2.1979 6.6842 2.8776 1.5809 0.2298 1.0065 -1.6988 2.2949 5.0209 6.4598 2.9721 -6.9453
2.3440 -1.6498 -6.2343 1.0623 0.5668 0.2371 -5.5914 1.6362 -0.4317 -2.0262 -3.6700 -2.2833 -1.3040 -3.3472 -3.4603 -3.2527 -1.1167 -0.6880 -2.6732 5.9479 2.7990 0.9775 -1.2328 -1.1958 -5.0030 2.0582 7.9904 2.7607 -1.8750 -11.7091
2.8944 -1.1059 -4.2462 0.9326 1.4436 0.3725 -3.7722 3.4952 -1.2060 -0.6803 -10.2770 -2.8750 -1.4678 -3.1167 -2.3714 -5.2022 -1.9071 -0.1030 -3.3612 5.7661 2.8429 0.7252 -2.2403 -1.7360 -5.7623 1.2395 9.3622 2.4152 -2.5762 -11.9358
3.4067 -0.6763 -1.7113 1.0125 1.6845 1.0099 -2.0063 0.9184 -1.5103 0.7381 -7.7002 -0.9051 -0.3650 -1.7540 -1.8226 -3.3429 -2.3641 1.3677 -2.7600 6.1674 2.7368 1.4125 -1.7831 0.7176 -2.2970 1.4994 10.5495 8.0942 3.7965 -5.4800
4.4525 0.0518 -1.9630 2.2759 1.9652 1.8585 -1.6949 -1.2247 -1.8908 0.2601 2.7557 -0.0125 0.2119 -1.2309 -2.6984 0.9398 -3.6330 0.9394 -2.8182 6.2720 1.8843 0.8099 -2.1479 1.1029 -0.8169 3.3433 9.1386 9.6629 5.7944 -3.1173
4.5739 0.3348 -4.4506 3.3246 1.8685 2.0693 -2.1834 1.8751 -2.7981 -1.6745 10.0834 -2.2365 -2.0631 -2.4454 -4.0758 3.4315 -5.9121 -1.2785 -4.8073 5.6368 -0.1660 -1.7205 -4.0704 -1.9179 -3.6386 3.7989 3.3837 3.9908 -0.0144 -7.6181
3.3661 -0.0773 -5.0380 2.6008 1.0428 1.5487 -2.3368 4.9995 -3.6991 -2.8422 8.9585 -3.5209 -5.1347 -3.8041 -3.6087 2.9056 -7.1405 -2.8849 -5.9924 5.3535 -1.8826 -3.6946 -5.1603 -2.6604 -4.4486 2.4150 -1.9360 0.5716 -2.6969 -8.5477
2.3448 0.0903 -3.4488 1.6134 0.4795 1.4186 -3.0273 3.1936 -3.7322 -2.7971 0.5190 -1.8608 -5.8774 -4.2390 -1.2253 -0.3277 -6.8446 -3.8451 -4.9785 6.4248 -2.5229 -4.8074 -5.2315 -0.0077 -1.7034 1.9952 -4.6086 0.0017 -1.1443 -4.4042
2.3529 0.8875 -2.8852 1.6739 0.5523 1.1699 -4.1274 0.4209 -2.8233 -2.9728 -11.2589 -0.7677 -4.6017 -4.1687 -0.0504 -4.8171 -6.2933 -4.5288 -4.4994 7.7967 -3.2210 -6.0837 -6.3972 0.8509 -1.3249 2.8880 -6.9742 -4.1582 -3.7809 -3.9472
2.8119 0.9929 -2.9174 1.9533 0.5810 -0.1155 -2.2562 0.6158 -1.8392 -4.1869 -16.1040 -0.6134 -3.0816 -3.4330 -3.2308 -5.2994 -5.2084 -3.1639 -6.0255 7.2728 -3.0215 -5.3598 -7.7143 -0.9259 -3.5063 3.1706 -6.9561 -6.4218 -6.7495 -6.2647
2.5003 0.1973 -2.2668 2.2783 0.3256 -0.7534 1.3844 1.9319 -1.5996 -5.3674 -9.6250 0.7778 -1.9046 -2.4642 -7.5281 -1.4306 -3.4053 -0.4907 -7.2770 4.4084 -0.8023 -1.8948 -6.5412 -1.5710 -3.3076 2.1789 -3.1464 -1.1050 -2.7630 -4.6766
1.1240 -0.6783 -2.9117 2.3715 -0.1244 0.3751 0.5995 2.7185 -1.7357 -5.0067 -1.6970 1.7942 -0.5651 -2.7965 -6.3757 -0.6253 -2.0938 0.6028 -6.5644 1.2552 1.2531 0.7931 -3.4485 -0.7206 -2.1757 1.1930 -0.1852 3.4848 1.6471 -2.7615
-0.0455 -1.4000 -4.4814 0.5559 -0.7587 1.5263 -4.1788 3.3151 -1.6202 -3.0674 1.9920 1.7533 0.4204 -3.6244 -0.5912 -3.7885 -1.4806 0.6380 -4.6028 0.1915 1.6107 1.3103 -0.9216 -0.4136 -3.9236 1.6320 0.1830 2.6716 0.6059 -5.5797
